# Profile Compression settings. Method: Running Average, using 5 datapoints
# Profile Smoothing is Disabled
#	Mo+	CsMo+	Al+	Na+	K+	O+	Si+	
#	97.9038	230.7907	26.9827	22.9916	38.9657	15.9962	27.9766	
#Sputter Time (s)	Intensity(Background Corrected)	Intensity(Background Corrected)	Intensity(Background Corrected)	Intensity(Background Corrected)	Intensity(Background Corrected)	Intensity(Background Corrected)	Intensity(Background Corrected)	
0.8192	659.245	15.0078	3.00302	96434	6696.76	47.0675	800.629	
2.4576	250.134	39.7299	1.66784	94211.8	2958.61	29.032	279.221	
4.096	156.884	50.7006	1.0007	88698.5	1919.36	22.4213	168.733	
5.7344	26.435	62.7364	0.800269	82563.1	640.371	14.6083	9.00692	
7.3728	15.409	67.5551	0.800269	75809	375.865	11.4044	2.60067	
9.0112	12.6055	74.1891	0.400171	69014.6	311.23	10.804	2.00033	
10.6496	11.0042	76.6002	0.400171	62209.6	286.744	8.00248	1.60028	
12.288	9.00282	83.2328	0.600189	56532.7	263.97	7.80236	1.00019	
13.9264	9.80326	84.0376	0.200018	51915.6	244.876	8.20249	1.00021	
15.5648	10.2037	90.072	0.200018	47515.2	226.816	7.6021	1.20023	
17.2032	10.0035	88.0603	0.200018	42752.2	213.439	6.20163	0.800134	
18.8416	10.6039	90.8801	0.200018	38585.3	194.578	7.40192	0.800122	
20.48	11.0041	92.6928	0	34696.7	184.056	6.00145	1.00015	
22.1184	9.8036	103.162	0	30938.1	172.329	4.6009	0.80011	
23.7568	9.40318	107.191	0.200006	27355.9	160.213	3.6005	0.600092	
25.3952	9.60319	113.233	0.200006	24191.2	145.88	3.40049	0.800122	
27.0336	8.60261	121.893	0.200006	21080	133.367	2.60029	0.600092	
28.672	8.80261	124.713	0.200006	18173.5	115.635	2.20026	0.600079	
30.3104	9.40279	123.505	0.200006	15498.7	101.133	1.60021	0.400049	
31.9488	8.20228	129.161	0	13123.5	89.4607	1.20013	0.400049	
33.5872	8.20257	135.213	0	11026.2	76.5945	1.00012	0.200018	
35.2256	8.60277	135.012	0.200006	9187.19	64.1327	0.400024	0.200018	
36.864	8.60277	135.817	0.400024	7573.74	59.3153	0.400024	0	
38.5024	10.2039	136.62	0.400024	6294.94	51.2884	1.00008	0.400073	
40.1408	10.6041	137.209	0.600055	5141.93	42.6628	1.00008	0.400073	
41.7792	10.6038	143.464	0.800073	4154.8	37.8505	1.20009	0.600092	
43.4176	10.604	140.438	0.600067	3363.75	34.4402	1.40009	0.800122	
45.056	10.6042	144.466	0.600067	2745.87	29.829	1.40009	0.800122	
46.6944	8.40278	153.961	0.600067	2227.02	27.8257	1.00004	0.400049	
48.3328	8.80288	156.19	0.400037	1825.21	26.8242	1.00004	0.400049	
49.9712	8.00249	156.796	0.200018	1479.4	27.0242	1.00004	0.200031	
51.6096	7.00203	161.648	0.200018	1216.35	23.0181	0.800037	0	
53.248	7.00179	163.874	0	994.016	22.0164	0.800037	0	
54.8864	7.40202	160.24	0	791.664	20.0138	0.600031	0	
56.5248	7.40202	165.088	0.200018	634.553	20.6144	0.400024	0	
58.1632	7.20199	165.902	0.400085	508.423	17.8105	0.400037	0	
59.8016	9.00303	172.964	0.400085	411.677	17.6104	0.400037	0	
61.44	9.00303	178.832	0.400085	336.4	16.0092	0.400037	0	
63.0784	8.6028	181.455	0.600116	274.271	16.4098	0.400037	0	
64.7168	8.4028	177.013	0.400098	230.124	14.0072	0.200018	0	
66.3552	8.60273	175.995	0.200031	194.655	14.8078	0	0.200043	
67.9936	7.40184	174.988	0.200031	161.278	15.0078	0	0.200043	
69.632	6.60152	171.742	0.200031	139.859	15.208	0	0.200043	
71.2704	7.20176	177.81	0.200006	121.689	13.6064	0	0.200043	
72.9088	7.00159	180.66	0.200006	111.004	15.2082	0	0.200043	
74.5472	6.60142	180.873	0.200006	102.55	13.8072	0	0.200043	
76.1856	6.40134	181.682	0.400037	96.3196	14.8083	0	0.200043	
77.824	6.40127	185.528	0.400037	85.8666	15.6087	0	0.400049	
79.4624	6.40127	183.508	0.200031	79.6319	16.4094	0	0.400049	
81.1008	7.80224	180.857	0.200031	69.7737	15.8087	0	0.400049	
82.7392	8.20251	182.065	0.200031	64.7533	15.208	0.200006	0.200006	
84.3776	8.60288	178.017	0	61.7368	13.4063	0.200006	0.200006	
86.016	8.80296	173.566	0	60.1279	12.6057	0.200006	0	
87.6544	9.60344	173.166	0	56.111	12.2051	0.200006	0	
89.2928	8.40255	171.951	0	57.3204	11.8045	0.200006	0.200006	
90.9312	8.60256	168.911	0	55.1108	13.206	0	0.200006	
92.5696	9.20271	167.707	0	57.3183	13.4061	0	0.200006	
94.208	9.00263	172.967	0	58.7264	13.0057	0	0.400037	
95.8464	7.80197	167.504	0.200006	59.1272	13.6063	0	0.400037	
97.4848	8.40228	168.512	0.400012	56.3102	13.2063	0	0.200031	
99.1232	8.80253	173.378	0.400012	56.7132	13.0059	0	0.200031	
100.762	8.80266	178.234	0.600031	54.1031	13.6064	0	0.200031	
102.4	8.80266	177.031	0.600031	50.891	15.0081	0	0	
104.038	9.60305	176.418	0.400024	48.0823	13.6071	0	0	
105.677	8.2025	177.226	0.200018	48.085	12.8063	0	0	
107.315	6.80186	174.379	0.400049	47.0807	13.207	0	0	
108.954	6.40148	178.22	0.200031	44.4743	12.4063	0	0	
110.592	7.60214	176.801	0.200031	45.2757	11.0049	0	0	
112.23	7.00183	180.043	0.200031	47.4818	12.0054	0	0.200006	
113.869	8.40263	179.847	0.200031	46.275	12.6057	0	0.200006	
115.507	9.00291	178.446	0	45.6728	12.2049	0	0.200006	
117.146	9.20303	174.812	0.200006	46.8771	12.2051	0	0.200006	
118.784	8.80288	179.272	0.200006	46.8777	11.2044	0	0.200006	
120.422	9.20319	182.105	0.200006	45.6739	11.6047	0	0	
122.061	9.00283	186.153	0.200006	44.0702	11.4048	0.200006	0	
123.699	8.6026	189.587	0.200006	43.4682	11.6052	0.200006	0	
125.338	7.60214	189.779	0	43.0696	11.0047	0.200006	0	
126.976	7.2018	186.932	0	40.4609	12.6058	0.200006	0	
128.614	7.00168	187.949	0.200031	37.6538	12.2058	0.200006	0.200018	
130.253	6.60154	189.557	0.200031	37.8529	11.8053	0.200006	0.400024	
131.891	6.60161	194.428	0.200031	38.6554	11.4047	0.200006	0.400024	
133.53	8.00248	198.479	0.200031	37.2487	13.4064	0.200006	0.400024	
135.168	7.80239	198.67	0.200031	40.6595	12.8058	0.200006	0.400024	
136.806	7.6022	203.128	0	41.6644	13.006	0.200006	0.200006	
138.445	7.80223	200.512	0.200031	44.4724	14.2072	0.200006	0	
140.083	7.40211	194.629	0.200031	44.6735	13.8069	0.200006	0	
141.722	6.2013	192.004	0.200031	46.4799	14.8088	0.200006	0	
143.36	7.6022	187.364	0.200031	45.2795	18.2135	0.200006	0	
144.998	8.00239	183.915	0.200031	44.675	18.8139	0.200006	0	
146.637	7.6023	184.313	0.200006	41.2664	19.6149	0	0	
148.275	9.00282	186.537	0.200006	40.8658	20.6157	0	0	
149.914	9.00282	187.949	0.200006	40.6631	18.6129	0	0	
151.552	7.40184	197.883	0.200006	37.6538	16.61	0	0	
153.19	7.40184	199.3	0.200006	39.4599	15.6091	0	0	
154.829	7.40176	196.477	0	38.2569	14.0073	0	0.200006	
156.467	7.40176	199.116	0	36.6521	14.0073	0	0.200006	
158.106	8.20216	196.485	0	35.8514	14.4075	0	0.200006	
159.744	8.40224	198.306	0	37.2533	13.6063	0.200006	0.200006	
161.382	8.60235	194.654	0	36.8514	15.0074	0.200006	0.200006	
163.021	9.00252	200.723	0	35.2481	15.6082	0.200006	0	
164.659	8.00211	199.916	0	34.446	14.6073	0.200006	0	
166.298	7.20172	203.56	0	33.8422	13.6065	0.200006	0.200031	
167.936	7.00164	203.36	0	32.4391	12.8058	0	0.200031	
169.574	6.40133	205.387	0	33.2419	13.8073	0	0.400037	
171.213	6.00116	203.969	0	32.2406	14.2072	0	0.400037	
172.851	6.20132	198.894	0	35.6522	14.6077	0	0.400037	
174.49	6.8016	201.515	0	34.0504	15.4086	0	0.200006	
176.128	8.60275	203.519	0	34.25	17.6109	0	0.200006	
177.766	8.80285	198.86	0	33.8499	17.0101	0	0	
179.405	9.60348	197.636	0	35.0513	16.4101	0	0	
181.043	10.6039	203.919	0	31.0392	16.4101	0	0	
182.682	12.2051	200.494	0	32.0414	15.8093	0.200006	0	
184.32	10.8042	192.198	0	31.2412	14.4075	0.200006	0	
185.958	10.6043	201.726	0	28.4326	13.4062	0.200006	0	
187.597	10.404	206.791	0	28.8344	14.2067	0.200006	0	
189.235	11.4048	205.98	0	28.4333	14.6072	0.200006	0.200006	
190.874	9.4034	207.392	0	27.4315	15.0078	0	0.200006	
192.512	9.60341	207.992	0	26.8284	15.008	0	0.200006	
194.15	10.6041	205.55	0	27.2295	14.2074	0	0.200006	
195.789	10.8043	207.798	0	30.0349	15.4086	0	0.400012	
197.427	8.603	204.956	0	29.4339	15.6087	0	0.200006	
199.066	8.00271	204.748	0	30.6354	15.008	0	0.200006	
200.704	7.00236	212.252	0	30.6373	14.8077	0	0.200006	
202.342	6.00149	211.047	0	30.0355	15.2081	0	0.200006	
203.981	4.80085	204.952	0	25.4268	14.0067	0	0	
205.619	5.00093	208.607	0	26.2284	13.4058	0	0	
207.258	5.60114	205.768	0	26.2288	14.2064	0	0	
208.896	6.00121	205.357	0	28.0308	14.8073	0	0	
210.534	6.60152	211.64	0	29.8344	15.0073	0	0	
212.173	7.40181	212.846	0.200018	31.0365	13.6062	0	0	
213.811	7.40174	216.077	0.200018	32.2394	13.4063	0	0	
215.45	7.80194	220.951	0.200018	31.8377	12.6058	0	0	
217.088	8.00202	213.251	0.200018	30.2345	11.2045	0	0	
218.726	7.6018	204.53	0.200018	27.8309	12.2055	0	0.200006	
220.365	7.4017	205.352	0	27.8299	13.4065	0	0.200006	
222.003	7.40178	201.508	0.200018	27.8286	14.8075	0	0.200006	
223.642	7.40178	192.393	0.200018	28.2299	16.4088	0	0.200006	
225.28	7.2017	197.453	0.200018	29.233	17.2095	0	0.200006	
226.918	7.80205	198.666	0.200018	29.2326	14.4075	0	0	
228.557	8.60249	200.293	0.200018	29.633	14.4077	0	0	
230.195	10.4036	200.301	0	27.2295	12.4059	0	0	
231.834	9.20313	212.251	0	25.6262	11.8052	0	0	
233.472	10.2038	213.668	0	25.425	11.8051	0.200006	0	
235.11	9.20326	214.276	0.200006	27.0285	12.8055	0.200006	0	
236.749	9.4034	218.942	0.200006	26.4275	11.4043	0.200006	0	
238.387	8.40276	222.386	0.400049	26.8281	12.8054	0.200006	0	
240.026	9.6032	225.424	0.400049	27.4296	12.6055	0.200006	0.200018	
241.664	8.40248	220.159	0.400049	25.4261	12.8057	0	0.400037	
243.302	9.403	218.941	0.200043	24.0235	12.4055	0	0.400037	
244.941	8.00227	216.298	0.200043	24.2247	13.206	0	0.400037	
246.579	7.80214	215.084	0	23.6239	13.206	0	0.400037	
248.218	7.40195	206.166	0	21.2193	13.8063	0.200006	0.400037	
249.856	8.60267	210.42	0	21.0183	12.6053	0.200006	0.400024	
251.494	8.6028	216.708	0	20.0156	14.0065	0.200006	0.400024	
253.133	9.60326	218.522	0	21.0172	14.6072	0.400012	0.600055	
254.771	9.00295	219.536	0	20.4161	14.8075	0.400012	0.600055	
256.41	8.80294	222.388	0	23.8224	14.0067	0.200006	0.400037	
258.048	8.60268	228.891	0.200006	24.0234	13.6066	0.200006	0.200031	
259.686	7.80228	228.682	0.200006	27.2302	14.007	0.200006	0.200031	
261.325	7.60216	227.671	0.200006	25.6278	12.6059	0	0	
262.963	7.80217	231.11	0.200006	26.6292	10.8045	0	0	
264.602	8.00217	235.966	0.200006	24.2265	11.2048	0	0	
266.24	8.80276	229.263	0	25.0284	13.0063	0	0	
267.878	8.00238	218.536	0	22.6234	12.4055	0	0	
269.517	6.80194	212.049	0	21.4212	13.8065	0	0	
271.155	7.20214	200.698	0	20.62	14.2066	0	0	
272.794	7.80245	195.224	0	20.0179	13.0058	0	0	
274.432	7.00198	195.427	0	18.2145	12.4053	0	0.200018	
276.07	8.40263	201.295	0	15.2105	13.0059	0	0.200018	
277.709	9.20296	203.523	0	14.8098	13.0061	0	0.200018	
279.347	8.80285	214.062	0	15.2107	13.2062	0	0.200018	
280.986	8.40272	216.895	0	14.6091	14.6073	0	0.200018	
282.624	8.80287	220.546	0.200006	15.6103	15.0077	0	0	
284.262	8.80287	230.081	0.200006	16.8115	14.2071	0	0	
285.901	8.80287	235.156	0.200006	18.8142	13.6064	0	0	
287.539	9.60322	237.389	0.200006	19.415	13.2061	0	0.200006	
289.178	10.2035	241.856	0.200006	22.0186	12.0051	0	0.200006	
290.816	9.20298	237.595	0	22.0191	11.0042	0	0.200006	
292.454	9.20286	228.873	0	21.8189	10.2036	0	0.400012	
294.093	10.4035	218.74	0	22.4203	10.0036	0	0.400012	
295.731	11.2043	211.639	0.200006	22.6209	10.8047	0	0.200006	
297.37	11.0042	202.116	0.200006	23.0216	11.405	0	0.200006	
299.008	11.4044	206.785	0.200006	22.4206	13.0061	0	0.200006	
300.646	10.8041	206.595	0.200006	24.8232	13.8067	0	0	
302.285	10.604	220.379	0.200006	21.4188	15.0079	0	0	
303.923	9.20298	226.265	0	21.2182	15.2076	0	0	
305.562	9.00286	226.856	0	17.2134	15.6079	0	0.200006	
307.2	8.20247	223.004	0	17.6149	14.207	0	0.200006	
308.838	8.00254	225.215	0	15.4134	14.2068	0	0.200006	
310.477	7.20205	212.239	0	15.0127	13.2057	0	0.200006	
312.115	8.2025	210.417	0	14.2114	15.0078	0	0.200006	
313.754	7.2022	216.719	0	13.4107	15.008	0	0	
315.392	7.80238	219.144	0	12.2077	16.2088	0	0	
317.03	7.8023	219.758	0	12.6081	15.4084	0	0	
318.669	8.20264	233.343	0	14.2096	15.2082	0	0	
320.307	6.80183	231.715	0.200006	13.4087	13.8067	0	0	
321.946	7.80213	232.103	0.200006	15.01	13.8065	0	0	
323.584	7.40203	237.385	0.200006	14.61	14.0068	0	0	
325.222	9.20311	247.347	0.200006	13.6083	15.408	0	0	
326.861	8.60268	246.135	0.400037	14.0092	17.8109	0	0	
328.499	9.6032	244.71	0.200031	13.809	15.8092	0	0	
330.138	10.4037	242.073	0.200031	13.6089	17.0105	0	0	
331.776	10.4037	231.322	0.200031	15.8139	15.4092	0	0	
333.414	9.4029	225.009	0.200031	18.8178	16.2099	0	0	
335.053	9.40299	215.676	0	18.6175	14.6076	0	0	
336.691	8.40247	214.665	0	19.6186	16.2089	0	0	
338.33	7.00165	222.997	0	20.4192	14.207	0	0	
339.968	6.80159	234.357	0	18.4147	14.0069	0.200006	0	
341.606	7.60217	230.29	0	16.6121	12.6058	0.200006	0.200031	
343.245	7.40208	237.388	0	15.8107	11.405	0.400012	0.200031	
344.883	8.20247	238.811	0	15.2102	11.0048	0.400012	0.200031	
346.522	8.20247	230.079	0	14.2092	12.4059	0.400012	0.200031	
348.16	10.0035	224.181	0	14.0095	14.2072	0.200006	0.200031	
349.798	9.40319	230.074	0	14.8101	15.2078	0.200006	0	
351.437	10.4038	230.482	0	15.0101	15.2077	0	0	
353.075	9.80346	234.748	0	14.8101	14.8072	0	0	
354.714	10.2037	237.387	0	16.8136	14.607	0	0	
356.352	8.00263	227.27	0	17.2131	12.8057	0	0	
357.99	6.60185	226.051	0	14.8111	13.0062	0	0	
359.629	5.60134	227.05	0	15.8131	13.4066	0	0	
361.267	5.00114	222.386	0	15.4125	14.2071	0	0	
362.906	4.00074	226.248	0	13.6088	12.8059	0.200018	0	
364.544	5.00114	240.034	0	12.8084	13.4065	0.200018	0	
366.182	6.00165	237.201	0.200006	13.6092	12.0049	0.200018	0	
367.821	7.60264	233.967	0.400037	13.8093	12.8056	0.200018	0.200031	
369.459	9.40357	238.628	0.400037	15.2112	12.005	0.200018	0.200031	
371.098	10.2038	236.187	0.400037	15.4116	12.8056	0	0.200031	
372.736	9.80351	230.09	0.400037	16.8125	12.8057	0	0.200031	
374.374	10.2036	234.346	0.200031	17.2135	13.0059	0	0.200031	
376.013	9.80317	241.637	0	15.8115	12.2057	0	0	
377.651	9.00263	240.834	0	14.8097	12.8062	0	0	
379.29	9.20272	244.087	0	15.01	11.8055	0	0	
380.928	10.4034	247.558	0.200006	16.0118	12.2055	0	0	
382.566	9.60294	244.317	0.200006	15.6105	13.0063	0.400024	0	
384.205	9.00256	244.74	0.200006	15.4109	13.2057	0.600031	0	
385.843	8.80245	247.782	0.200006	16.6132	14.2072	0.600031	0	
387.482	8.40228	241.477	0.400012	16.8134	15.2079	0.600031	0	
389.12	8.00202	241.249	0.200006	15.0116	15.6084	0.600031	0	
390.758	8.60233	244.088	0.200006	13.6102	13.4069	0.200006	0	
392.397	7.80198	237.386	0.200006	13.8098	12.6063	0	0	
394.035	8.60247	230.081	0.200006	11.4069	12.2054	0	0	
395.674	9.60299	230.699	0	11.2073	13.0062	0	0.200031	
397.312	9.60311	232.336	0	13.41	13.8067	0	0.200031	
398.95	9.20289	228.479	0.200031	15.0116	14.8072	0	0.200031	
400.589	9.20289	233.567	0.200031	15.0115	13.8068	0	0.400037	
402.227	8.00223	234.779	0.200031	16.4126	13.2064	0	0.400037	
403.866	7.2018	236.189	0.200031	16.2116	14.4079	0	0.200006	
405.504	6.00121	240.241	0.200031	14.6087	12.0061	0	0.200006	
407.142	5.60111	238.415	0	14.4081	14.0081	0	0.200006	
408.781	4.80096	235.76	0	13.4078	17.0102	0	0	
410.419	4.40084	239.009	0	14.4091	17.01	0	0	
412.058	4.20084	243.693	0	13.4087	15.008	0	0	
413.696	4.00074	241.886	0	14.4119	16.8094	0	0	
415.334	4.40084	253.259	0	14.2122	15.0077	0	0	
416.973	5.40106	257.735	0	14.8125	13.2061	0	0	
418.611	5.80125	257.726	0	13.6109	13.8067	0	0	
420.25	7.40216	255.686	0.200006	13.6104	13.6062	0	0	
421.888	7.80231	258.323	0.200006	11.4064	12.6053	0	0	
423.526	8.80296	256.286	0.800098	11.6064	12.2051	0.200006	0	
425.165	9.40323	252.628	0.800098	12.8078	11.6048	0.200006	0	
426.803	9.60324	259.33	0.800098	12.0072	11.2044	0.200006	0	
428.442	7.80225	258.926	0.600092	12.4075	11.0044	0.200006	0	
430.08	7.80219	256.271	0.600092	13.2085	11.4046	0.200006	0	
431.718	6.00126	249.567	0	11.8075	12.0054	0	0	
433.357	6.00126	245.903	0	9.8057	12.2055	0	0	
434.995	6.20136	242.651	0	10.0055	11.8053	0	0	
436.634	7.60203	238.794	0	11.0063	13.2065	0	0	
438.272	8.00217	239.197	0	10.4053	13.2066	0	0	
439.91	9.00257	249.769	0	9.80459	13.4062	0	0.200018	
441.549	8.80276	254.436	0.200018	11.005	15.4078	0	0.200018	
443.187	9.4031	254.658	0.200018	11.0057	17.0093	0	0.200018	
444.826	8.80293	263.81	0.200018	9.805	16.2084	0	0.200018	
446.464	9.60337	257.314	0.200018	8.80464	15.6079	0	0.200018	
448.102	8.60297	248.982	0.200018	9.60542	15.808	0	0	
449.741	8.40259	251.836	0	10.2066	13.6064	0	0	
451.379	7.40207	253.643	0	10.6061	12.8054	0.200006	0	
453.018	7.20175	253.84	0	10.806	13.0058	0.200006	0	
454.656	7.00174	259.943	0	11.4062	14.4072	0.200006	0.200006	
456.294	7.2018	259.343	0	13.4077	13.6065	0.200006	0.200006	
457.933	7.6021	255.907	0	14.0082	14.407	0.200006	0.200006	
459.571	7.40203	256.325	0	13.6082	13.8064	0	0.200006	
461.21	6.8018	254.897	0	13.8082	15.2079	0	0.200006	
462.848	5.60116	257.94	0	14.0091	13.4063	0	0	
464.486	5.60116	264.437	0	12.0074	13.2062	0.200006	0	
466.125	5.20085	264.218	0.200006	9.60526	13.2062	0.200006	0	
467.763	5.80109	259.748	0.200006	10.8061	13.0063	0.200006	0	
469.402	6.60154	252.032	0.200006	10.0057	11.8051	0.200006	0	
471.04	6.60159	251.428	0.400012	11.4075	13.6065	0.200006	0	
472.678	6.40159	254.271	0.400012	12.0076	15.2078	0	0	
474.317	6.80178	255.284	0.200006	12.8082	17.4103	0	0	
475.955	6.00149	265.259	0.200006	12.6089	17.0097	0	0.200006	
477.594	5.00098	275.83	0.200006	13.6094	17.2097	0	0.200006	
479.232	5.40106	276.03	0	12.407	19.0121	0	0.200006	
480.87	7.00179	270.134	0	12.4075	18.6118	0	0.200006	
482.509	6.40159	274.417	0	12.0072	17.21	0	0.200006	
484.147	6.00151	269.318	0	11.0058	16.0095	0	0	
485.786	7.20203	267.913	0	10.0054	15.8092	0	0	
487.424	7.20203	269.334	0	10.6064	12.0054	0	0	
489.062	6.80176	274.824	0	9.40539	12.8063	0	0	
490.701	6.60162	270.343	0	10.2063	13.6072	0	0	
492.339	7.20175	271.57	0	10.0063	14.2073	0	0	
493.978	7.60216	263.215	0	10.0061	14.808	0	0	
495.616	8.00243	257.921	0	10.0055	17.4102	0	0	
497.254	7.60231	257.498	0	10.6061	16.209	0	0.200018	
498.893	8.20255	262.6	0	11.0059	14.8078	0	0.200018	
500.531	9.60327	264.013	0	10.8055	17.4104	0	0.200018	
502.17	9.00274	270.526	0	11.006	16.6097	0	0.200018	
503.808	9.40299	272.363	0	10.806	15.609	0.200006	0.200018	
505.446	9.60321	273.395	0	10.6056	15.6087	0.200006	0	
507.085	9.60321	271.545	0.200031	9.20497	15.2083	0.200006	0	
508.723	8.60272	264.436	0.200031	9.40544	13.206	0.200006	0	
510.362	8.00244	262.408	0.200031	9.80562	13.4061	0.200006	0	
512	8.60274	267.917	0.200031	8.40456	13.0053	0	0	
513.638	8.80264	260.595	0.200031	8.20423	12.2048	0	0	
515.277	10.4038	262.825	0.400085	8.40451	14.6071	0	0	
516.915	11.004	260.585	0.400085	8.00399	15.2079	0	0	
518.554	11.4042	260.565	0.400085	8.60409	14.6075	0	0	
520.192	11.0039	258.92	0.400085	9.00462	15.6085	0	0	
521.83	11.0039	264.199	0.400085	9.40501	17.6105	0	0	
523.469	9.00257	268.067	0	9.80514	15.4084	0	0	
525.107	8.80245	277.024	0	9.20479	14.8076	0	0	
526.746	8.80245	284.977	0	8.20396	14.0069	0	0	
528.384	8.40221	287.013	0.200031	7.80328	12.6058	0	0	
530.022	8.20209	284.589	0.200031	7.60337	11.6045	0	0	
531.661	10.4036	274.826	0.200031	7.60283	13.406	0	0	
533.299	10.6039	272.578	0.200031	8.80364	13.206	0	0	
534.938	10.6039	265.026	0.200031	8.60344	15.6084	0	0	
536.576	9.80354	259.54	0	9.20375	15.008	0	0.200006	
538.214	11.0046	260.543	0	9.20365	14.0072	0	0.200006	
539.853	8.80305	271.536	0	8.60389	13.4066	0	0.200006	
541.491	8.40281	277.032	0	8.8042	15.2083	0	0.200006	
543.13	7.80257	276.834	0	9.00501	13.6068	0	0.200006	
544.768	7.80263	276.427	0	9.00545	15.2079	0	0	
546.406	6.20137	279.683	0	9.20563	16.8097	0	0	
548.045	6.80176	275.192	0	9.80566	15.4087	0	0.200006	
549.683	6.40149	273.569	0.200006	9.80593	13.6069	0	0.200006	
551.322	6.60156	276.616	0.200006	8.80511	13.8069	0	0.200006	
552.96	8.00222	275.194	0.200006	8.60465	13.8069	0	0.200006	
554.598	7.40207	270.105	0.200006	9.00489	13.2062	0	0.400024	
556.237	8.00249	264.624	0.200006	8.80498	14.8075	0	0.400024	
557.875	9.00301	255.464	0	7.60357	15.4079	0	0.400024	
559.514	10.404	259.745	0	8.00352	16.8096	0	0.400024	
561.152	8.8032	263.6	0	8.0036	15.8089	0	0.400024	
562.79	9.40335	270.933	0	7.00308	16.2093	0	0.200006	
564.429	8.60272	270.327	0	6.60286	15.8089	0	0	
566.067	8.00237	278.455	0	7.40321	15.8089	0.200006	0	
567.706	6.80148	278.248	0	8.00371	15.0076	0.200006	0	
569.344	6.80148	277.225	0	8.40402	16.4087	0.200006	0	
570.982	6.40133	273.752	0	9.20418	17.2092	0.200006	0	
572.621	6.80167	281.064	0	9.60423	16.8092	0.200006	0	
574.259	7.00178	281.485	0	9.60478	17.4098	0	0	
575.898	9.00345	274.156	0	9.20451	16.4088	0	0	
577.536	10.0041	277.402	0	8.60383	15.408	0	0	
579.174	11.8051	277.02	0	9.60497	13.6065	0	0	
580.813	12.0051	270.112	0	8.80478	14.6072	0	0.200006	
582.451	12.0051	267.669	0.200018	8.20399	13.8069	0	0.200006	
584.09	10.2035	273.376	0.200018	9.60502	14.6077	0	0.200006	
585.728	10.4034	277.052	0.200018	10.0058	16.2094	0	0.200006	
587.366	9.00253	278.859	0.200018	9.00482	18.6123	0	0.200006	
589.005	8.80241	285.16	0.200018	10.0056	18.2121	0	0	
590.643	8.6024	290.247	0.200006	9.80566	18.6123	0	0	
592.282	8.20223	286.174	0.200006	7.8042	18.0118	0	0	
593.92	8.00211	279.246	0.200006	8.40476	18.4123	0	0	
595.558	7.60197	278.658	0.200006	8.00437	16.0091	0	0	
597.197	8.20239	278.469	0.400012	7.40371	14.2075	0	0.200006	
598.835	8.20229	278.275	0.400012	9.20536	14.4075	0	0.200006	
600.474	8.20229	284.799	0.400012	9.60564	14.4077	0	0.200006	
602.112	8.20229	289.695	0.400012	8.6045	12.8056	0	0.200006	
603.75	8.80263	292.738	0.400012	9.00467	12.8056	0	0.200006	
605.389	6.80168	290.9	0.200006	9.80511	13.6064	0	0.200006	
607.027	6.40151	285.802	0	8.20328	12.8055	0	0.200006	
608.666	6.80169	279.888	0	8.00316	13.2057	0	0.200006	
610.304	7.0018	283.578	0	9.00357	13.2061	0	0.200006	
611.942	7.20192	283.183	0	10.2051	15.0084	0	0.400024	
613.581	9.00285	283.191	0	8.80398	15.4084	0	0.200018	
615.219	9.20293	287.884	0.200031	10.0055	16.6095	0	0.200018	
616.858	9.20293	290.952	0.200031	10.0057	16.2091	0	0.200018	
618.496	9.20293	283.376	0.400049	10.006	16.6093	0	0.400024	
620.134	10.2035	278.065	0.400049	8.20433	14.0067	0	0.200006	
621.773	9.40289	276.426	0.400049	8.60473	15.4085	0	0.200006	
623.411	9.0028	273.57	0.200018	7.80357	15.4087	0	0.200006	
625.05	9.20302	279.456	0.400024	8.00371	15.2087	0	0.200006	
626.688	9.20314	282.535	0.200006	6.80285	15.0083	0	0	
628.326	7.20209	288.231	0.200006	7.60353	16.0087	0	0	
629.965	7.002	293.937	0.200006	7.20325	14.607	0	0	
631.603	7.00194	297.996	0.200006	8.60457	13.4057	0	0	
633.242	6.60163	286.811	0	9.6053	13.0054	0	0	
634.88	5.80119	286.807	0	11.2072	12.605	0	0	
636.518	6.80154	287.222	0	10.8065	12.6052	0	0	
638.157	7.00163	286.804	0.200018	10.6065	11.4044	0	0	
639.795	7.80208	287.826	0.200018	9.40578	13.4068	0	0	
641.434	7.602	295.145	0.200018	8.40497	12.6063	0.200006	0	
643.072	7.20181	293.525	0.200018	7.20322	12.6065	0.200006	0	
644.71	7.60205	287.414	0.200018	7.40335	13.4073	0.200006	0	
646.349	6.40169	281.507	0	7.60335	13.4073	0.200006	0	
647.987	7.00196	273.164	0	7.80351	12.4059	0.200006	0	
649.626	8.20277	267.454	0	7.20307	14.007	0	0	
651.264	9.20327	263.985	0	7.20343	13.8067	0	0	
652.902	9.20327	265.621	0	6.80327	12.8059	0	0	
654.541	10.2036	276.844	0	6.80333	16.4097	0	0	
656.179	8.60285	283.76	0	6.80346	16.4095	0	0	
657.818	7.20204	283.77	0	7.60424	15.6086	0	0	
659.456	8.40281	282.767	0	7.00356	15.809	0	0	
661.094	7.60237	280.114	0	6.80344	15.8088	0	0	
662.733	7.80247	272.763	0	6.80332	13.2059	0	0	
664.371	7.40245	265.018	0	6.00237	13.8068	0	0	
666.01	8.00263	271.727	0	5.80178	14.4077	0	0	
667.648	6.0014	277.212	0	5.60181	14.4077	0	0	
669.286	5.8014	278.038	0	6.60264	14.2074	0	0.200043	
670.925	5.40113	274.572	0.200018	7.40319	13.2068	0	0.200043	
672.563	7.40194	272.564	0.200018	7.60338	12.4058	0	0.200043	
674.202	7.00176	271.76	0.200018	7.80378	11.6048	0.200018	0.200043	
675.84	8.80281	270.526	0.200018	7.60382	12.8059	0.200018	0.200043	
677.478	8.80281	278.857	0.200018	7.00323	13.4065	0.200018	0	
679.117	8.80281	285.792	0	6.20274	14.4069	0.200018	0	
680.755	8.00232	288.417	0	5.80231	14.2068	0.400024	0	
682.394	8.6026	284.135	0	7.20291	14.6069	0.200006	0	
684.032	6.80155	283.925	0	7.80311	13.806	0.200006	0	
685.67	8.00214	275.987	0	7.80291	14.2062	0.200006	0	
687.309	8.80253	273.137	0	8.60318	15.007	0.200006	0	
688.947	9.20299	276.202	0	9.20368	14.4065	0	0	
690.586	8.40265	276.606	0.200018	7.60303	14.0062	0	0	
692.224	8.60272	282.309	0.200018	7.60316	12.6052	0	0	
693.862	8.20245	286.576	0.200018	8.40415	13.6066	0	0	
695.501	7.00194	281.475	0.400073	7.80407	13.6066	0	0	
697.139	6.40138	276.172	0.400073	7.20358	14.0069	0	0	
698.778	6.80153	275.152	0.200055	6.80314	16.4095	0.200006	0	
700.416	7.2017	271.49	0.200055	7.20305	18.4114	0.200006	0	
702.054	5.60111	267.83	0.200055	6.40282	16.8095	0.200006	0	
703.693	6.80162	272.914	0	7.60332	16.6095	0.200006	0	
705.331	7.20182	280.064	0	7.40323	18.4119	0.400012	0	
706.97	8.00239	280.677	0	8.20388	17.8119	0.200006	0	
708.608	8.40261	274.796	0.200031	7.60391	16.8108	0.200006	0	
710.246	10.6036	274.585	0.200031	7.40356	17.011	0.200006	0	
711.885	9.40321	271.328	0.200031	6.80369	18.4124	0.200006	0	
713.523	9.2032	266.24	0.200031	6.40355	16.2097	0	0	
715.162	8.60272	266.656	0.200031	5.80343	15.2079	0	0	
716.8	7.00213	275.396	0	6.00335	16.61	0	0	
718.438	6.80212	284.772	0	6.60359	15.2091	0	0	
720.077	7.80242	284.368	0	6.0028	13.6072	0	0	
721.715	7.60223	289.635	0	7.0033	14.6083	0	0	
723.354	7.80245	301.053	0	6.40263	14.2078	0	0	
724.992	8.60264	296.163	0	6.80309	13.4063	0	0	
726.63	7.40191	295.174	0	6.00232	16.6095	0.200006	0	
728.269	7.20181	298.639	0	6.40264	15.6089	0.200006	0	
729.907	6.00151	301.084	0	5.80233	15.6089	0.200006	0	
731.546	6.80194	290.684	0	6.60293	15.8092	0.200006	0	
733.184	8.40309	290.691	0	6.80318	16.6101	0.200006	0	
734.822	8.40302	288.429	0	7.2033	15.6086	0.200006	0	
736.461	8.80324	287.612	0	6.40286	17.8108	0.200006	0	
738.099	11.2043	285.614	0.200018	7.40333	17.8108	0.200006	0	
739.738	10.0035	283.57	0.200018	7.00288	18.211	0.200006	0	
741.376	8.80255	289.686	0.200018	6.60236	17.2096	0.200006	0	
743.014	9.40283	284.6	0.200018	6.80248	16.8092	0	0	
744.653	9.40283	288.069	0.200018	7.80317	16.4085	0	0	
746.291	8.20209	281.513	0	7.40293	16.0079	0	0	
747.93	8.40219	282.73	0	9.00384	16.2081	0	0.200031	
749.568	7.60189	278.658	0	9.00367	15.0071	0	0.200031	
751.206	7.80201	281.495	0	9.40421	14.6068	0	0.200031	
752.845	7.00169	279.251	0.200018	8.20337	13.8061	0	0.200031	
754.483	7.80213	289.023	0.400024	8.40368	15.0074	0	0.200031	
756.122	7.00184	290.472	0.400024	7.80359	15.0074	0	0	
757.76	8.00223	290.665	0.400024	7.80399	15.6078	0	0	
759.398	8.4025	281.11	0.400024	7.20324	15.6078	0	0	
761.037	8.8026	280.71	0.200006	7.60342	15.808	0	0.400073	
762.675	8.20225	275.412	0	7.40319	15.608	0	0.400073	
764.314	9.20276	280.695	0	7.40317	16.2088	0	0.400073	
765.952	9.40288	283.136	0	8.80401	18.6116	0	0.400073	
767.59	7.80209	287.427	0	8.80449	18.8118	0	0.800098	
769.229	8.40244	298.839	0	9.4051	18.2111	0	0.400024	
770.867	8.00234	298.849	0	10.206	18.0106	0	0.400024	
772.506	8.00223	288.256	0	9.20528	17.2096	0	0.400024	
774.144	8.4025	289.257	0	7.60408	15.007	0	0.400024	
775.782	9.0027	297.378	0	7.40401	15.0071	0	0.200018	
777.421	9.20299	285.135	0	7.40362	15.0071	0	0.200018	
779.059	9.20292	285.339	0	7.80404	14.2064	0	0.200018	
780.698	9.8033	291.841	0	7.60403	13.2056	0	0.200018	
782.336	8.40258	286.969	0	8.0043	12.4051	0	0.200018	
783.974	9.20315	277.602	0	8.40442	12.6053	0	0	
785.613	8.00242	269.488	0	7.60408	12.4052	0	0	
787.251	8.2025	268.477	0	5.8025	11.8049	0.200006	0	
788.89	6.80177	273.164	0	6.20246	12.6054	0.200006	0	
790.528	8.80299	272.972	0	5.60214	13.0057	0.200006	0	
792.166	8.00242	281.32	0	5.00172	12.0047	0.200006	0	
793.805	8.20251	299.238	0	5.00191	13.2058	0.200006	0	
795.443	9.00295	298.017	0	5.40234	12.6053	0	0	
797.082	10.2035	286.842	0	4.80222	12.4052	0	0	
798.72	8.80255	285.005	0	5.00228	13.2059	0	0	
800.358	8.00231	286.44	0	4.80204	14.0067	0.200006	0	
801.997	8.00231	278.879	0	5.20206	14.2072	0.200006	0	
803.635	6.80172	281.924	0	5.20183	15.2078	0.200006	0	
805.274	5.60114	286.815	0	5.80211	16.2094	0.200006	0.200006	
806.912	4.80084	297.392	0.200006	7.00277	15.0084	0.200006	0.200006	
808.55	5.40101	294.528	0.200006	7.60318	14.808	0.200006	0.200006	
810.189	6.00123	289.242	0.200006	7.20325	13.8068	0.200006	0.200006	
811.827	7.40196	289.852	0.200006	7.40345	13.807	0.200006	0.200006	
813.466	7.80211	291.857	0.200006	8.8046	13.0055	0.200006	0	
815.104	8.40231	282.918	0	7.6038	14.0065	0.200006	0	
816.742	8.80248	282.325	0	6.80341	15.408	0	0	
818.381	8.80248	293.728	0.200018	7.80357	16.2092	0	0.200043	
820.019	7.60182	298.009	0.200018	7.40314	17.21	0	0.200043	
821.658	8.60255	294.362	0.400024	5.60181	16.2094	0	0.200043	
823.296	9.00274	298.205	0.400024	5.20159	15.4084	0	0.400049	
824.934	8.00244	299.22	0.400024	6.00169	14.0071	0	0.400049	
826.573	7.60222	293.717	0.200006	5.60155	14.0067	0	0.200006	
828.211	8.2025	286.592	0.200006	7.40326	14.2069	0	0.200006	
829.85	8.60267	295.559	0	8.40386	16.0083	0	0.200006	
831.488	7.80233	297.997	0	9.40498	16.4086	0	0	
833.126	8.00233	290.253	0	9.00503	17.009	0	0.200006	
834.765	7.60216	283.146	0	8.60489	17.41	0	0.200006	
836.403	7.20197	281.725	0	7.60347	17.0095	0	0.200006	
838.042	5.80107	274.993	0	7.00327	16.4089	0	0.200006	
839.68	6.80153	272.363	0	6.40244	16.0086	0	0.200006	
841.318	7.80192	275.413	0	5.8022	15.0077	0	0	
842.957	7.802	284.369	0	6.40304	14.2066	0	0	
844.595	7.20184	291.091	0.400024	5.603	13.2057	0	0	
846.234	7.80216	291.495	0.400024	5.80283	12.8055	0	0	
847.872	7.60204	287.623	0.400024	5.80312	14.0065	0.200006	0	
849.51	7.00184	287.42	0.400024	6.20319	13.4061	0.200006	0	
851.149	8.00228	285.581	0.400024	6.40285	13.0055	0.200006	0	
852.787	9.20275	284.775	0.200018	6.6029	14.6071	0.200006	0	
854.426	9.00274	287.031	0.200018	7.00339	14.8071	0.200006	0	
856.064	8.00234	297.231	0.200018	7.60381	13.8062	0	0	
857.702	7.8022	305.176	0.200018	8.00469	15.6079	0	0	
859.341	7.20186	305.17	0.200018	7.40438	16.6092	0	0.200006	
860.979	6.40147	298.849	0	8.20558	14.8077	0	0.200006	
862.618	6.00116	295.368	0	8.00531	16.6098	0.200006	0.200006	
864.256	6.80145	286.4	0	7.6048	17.8111	0.200006	0.200006	
865.894	7.80191	287.637	0	7.40445	18.2113	0.200006	0.200006	
867.533	8.00202	280.303	0	7.40431	16.8098	0.200006	0	
869.171	8.40219	286.397	0	7.00328	17.4101	0.200006	0	
870.81	8.40219	284.373	0	7.40347	17.0096	0	0	
872.448	7.60189	279.488	0	7.00341	16.2086	0	0	
874.086	7.00167	272.733	0	7.20316	15.8081	0	0	
875.725	6.00127	280.671	0	6.80294	16.4086	0	0	
877.363	5.80126	278.85	0	5.80231	16.0081	0	0	
879.002	6.20157	281.483	0	5.00185	14.0062	0	0	
880.64	6.80177	285.539	0	5.60176	14.807	0	0	
882.278	6.60161	286.778	0.200006	5.40142	15.0076	0	0	
883.917	7.0018	282.306	0.200006	6.40276	14.8076	0	0	
885.555	7.60203	282.101	0.200006	7.00322	14.8076	0	0.200031	
887.194	7.00164	281.689	0.200006	7.80405	16.8096	0	0.200031	
888.832	6.80164	286.777	0.200006	7.80424	16.4092	0	0.200031	
890.47	7.00172	290.26	0	7.60454	16.4087	0	0.200031	
892.109	7.60192	300.044	0	7.0035	18.0106	0	0.200031	
893.747	7.2017	311.059	0	7.6037	18.6112	0.200006	0	
895.386	7.80208	321.885	0	6.20267	17.8105	0.200006	0.200031	
897.024	8.40239	326.595	0.200006	6.80313	19.4125	0.200006	0.200031	
898.662	8.40256	321.887	0.200006	8.00362	16.8106	0.200006	0.200031	
900.301	9.20342	313.728	0.200006	8.00354	14.6081	0.200006	0.200031	
901.939	8.40313	297.814	0.200006	7.40312	14.8081	0	0.200031	
903.578	7.60267	287.206	0.200006	9.20413	15.0085	0	0	
905.216	8.00305	284.145	0	8.00326	14.0072	0	0	
906.854	8.60319	290.046	0	8.20343	16.6091	0	0.200006	
908.493	6.60194	295.354	0	8.60374	18.2106	0	0.200006	
910.131	7.40223	297.59	0	9.40467	19.0117	0	0.200006	
911.77	7.6023	286.81	0	8.20409	19.2117	0.200006	0.200006	
913.408	7.0018	277.44	0	9.00463	19.0115	0.200006	0.200006	
915.046	5.40124	280.105	0	7.4039	19.4123	0.200006	0	
916.685	7.20217	278.061	0	7.60426	18.6114	0.200006	0	
918.323	6.60194	286.826	0	7.00385	18.8114	0.200006	0	
919.962	7.00211	302.275	0	7.40371	20.6145	0	0	
921.6	8.40299	305.516	0	7.20337	20.6147	0	0	
923.238	8.603	291.669	0	8.60421	20.6144	0	0.200018	
924.877	8.00258	288.208	0	9.00417	20.8146	0	0.200018	
926.515	8.20264	280.666	0	9.20385	18.8128	0	0.200018	
928.154	8.00255	274.576	0	8.60354	15.2081	0	0.200018	
929.792	6.00133	283.353	0	9.20459	14.8076	0	0.200018	
931.43	6.6015	293.517	0	8.20383	13.2064	0.200006	0	
933.069	6.6015	299.219	0	8.00392	13.4066	0.400012	0	
934.707	6.80158	303.506	0	8.8049	15.2082	0.400012	0	
936.346	7.80216	306.552	0	9.60534	16.6092	0.400012	0	
937.984	8.2023	302.678	0	9.00438	17.0097	0.400012	0	
939.622	9.00282	299.424	0	9.6048	16.0087	0.200006	0	
941.261	8.20236	304.317	0	8.60398	14.8076	0	0	
942.899	7.80222	306.767	0	7.60307	14.8081	0	0	
944.538	6.4015	314.302	0	6.80281	14.6081	0	0	
946.176	6.2015	316.129	0	6.8031	15.0084	0	0	
947.814	6.00137	317.566	0	7.00314	17.0101	0	0	
949.453	6.80171	305.333	0	7.80358	18.6115	0	0	
951.091	7.00178	298.609	0	8.00342	16.8096	0	0	
952.73	8.00234	291.274	0	9.00369	18.4117	0	0	
954.368	7.60215	289.435	0	8.40352	17.4108	0	0	
956.006	6.8017	291.055	0	7.60291	15.8092	0	0	
957.645	7.80274	295.744	0	6.80247	15.0085	0	0.200006	
959.283	7.80274	303.497	0	6.60289	15.4086	0	0.200006	
960.922	8.20301	302.075	0	5.80282	12.4054	0	0.200006	
962.56	8.80321	297.602	0	6.60294	11.6047	0.200006	0.200006	
964.198	8.60316	296.586	0.200018	7.00325	13.8068	0.200006	0.200006	
965.837	7.60211	290.689	0.200018	7.20349	14.6074	0.200006	0	
967.475	8.00228	284.756	0.200018	7.40327	15.6084	0.200006	0	
969.114	8.00216	295.767	0.400049	8.20334	18.2107	0.200006	0	
970.752	8.40236	300.856	0.400049	9.00402	19.0112	0	0	
972.39	9.00256	299.427	0.200031	9.00383	18.811	0	0	
974.029	9.4028	301.247	0.200031	10.0049	17.8099	0	0	
975.667	8.60251	301.851	0.200031	10.4053	16.809	0	0	
977.306	7.20178	293.883	0	11.4068	15.0072	0	0.200031	
978.944	6.4015	289.409	0	11.0066	16.2086	0	0.200031	
980.582	6.60159	289.405	0	11.4069	15.8081	0	0.200031	
982.221	6.40147	291.244	0	10.2059	18.211	0	0.200031	
983.859	6.40147	292.273	0	9.0052	19.0118	0	0.200031	
985.498	6.8017	295.738	0	7.60349	20.0125	0	0	
987.136	6.8017	292.682	0.200006	8.20444	19.4118	0	0	
988.774	6.40167	291.06	0.200006	8.40446	20.2128	0	0	
990.413	5.80153	294.521	0.200006	9.20487	19.0111	0	0	
992.051	7.00205	294.93	0.200006	10.8055	17.8101	0	0	
993.69	7.00205	295.557	0.200006	11.206	17.6099	0	0	
995.328	6.80198	301.857	0	11.0056	17.0095	0	0	
996.966	6.40176	313.671	0.200031	11.4058	15.4077	0	0	
998.605	6.60168	309.593	0.400049	11.2057	14.807	0	0	
1000.24	6.40156	298.208	0.400049	11.2059	16.008	0	0	
1001.88	6.00133	293.316	0.400049	11.0055	16.4087	0	0	
1003.52	6.40148	290.279	0.400049	10.0048	15.408	0	0	
1005.16	7.40183	280.294	0.200018	9.00443	16.6095	0	0	
1006.8	7.40192	280.701	0	9.60509	17.01	0	0	
1008.44	7.00173	290.673	0	8.6047	17.01	0	0	
1010.07	8.40245	292.095	0	8.80509	16.8095	0	0	
1011.71	8.40245	296.979	0	10.0056	18.2104	0	0	
1013.35	8.00226	300.64	0	10.2056	17.0089	0	0	
1014.99	7.40192	302.873	0	10.2049	17.8108	0	0	
1016.63	7.60211	303.674	0.200006	10.8053	16.6099	0.200006	0	
1018.27	6.60153	305.109	0.200006	10.0048	15.6089	0.200006	0.200006	
1019.9	6.60146	298.786	0.400037	9.00365	17.4113	0.200006	0.200006	
1021.54	6.20137	295.929	0.400037	9.2039	20.2149	0.200006	0.200006	
1023.18	6.20137	295.118	0.400037	10.0051	19.213	0.200006	0.200006	
1024.82	6.40149	293.084	0.200031	10.606	19.4133	0	0.200006	
1026.46	6.20141	288.394	0.200031	12.4071	20.615	0	0	
1028.1	6.80168	286.157	0	12.6078	18.8126	0	0	
1029.73	7.00169	278.011	0	12.0076	17.4105	0	0	
1031.37	8.00215	281.681	0	10.0057	15.609	0	0	
1033.01	7.60193	280.86	0	8.60434	15.2085	0	0	
1034.65	8.60269	282.474	0	8.00392	15.0082	0	0	
1036.29	9.20322	278.207	0	9.00444	14.4076	0	0	
1037.93	9.4033	283.711	0	9.40454	14.0071	0	0	
1039.56	9.00318	276.578	0	11.6063	17.0102	0	0	
1041.2	8.80309	276.188	0	13.608	20.0135	0	0.200018	
1042.84	8.00241	270.904	0	12.6076	19.0121	0	0.200018	
1044.48	6.40148	278.439	0	11.607	20.2136	0	0.200018	
1046.12	6.00139	277.215	0	12.608	21.0154	0	0.200018	
1047.76	5.8012	276.209	0	11.0067	19.0128	0.200006	0.200018	
1049.4	6.00121	275.184	0	11.6068	17.411	0.200006	0	
1051.03	6.2014	273.352	0	13.2082	17.8113	0.400024	0	
1052.67	6.2014	277.813	0	13.008	18.4119	0.400024	0	
1054.31	7.00168	278.232	0.200031	15.8123	16.0086	0.600031	0	
1055.95	7.60199	285.562	0.200031	18.6159	17.2099	0.400024	0.200018	
1057.59	8.40243	287.39	0.200031	17.0147	17.4099	0.400024	0.200018	
1059.23	7.80216	291.081	0.200031	18.8174	19.813	0.200006	0.200018	
1060.86	8.60255	288.236	0.200031	21.0191	20.0133	0.200006	0.200018	
1062.5	8.40244	286.603	0.200031	18.4153	21.2142	0	0.200018	
1064.14	8.60271	276.02	0.200031	18.4153	22.2155	0	0	
1065.78	8.20246	276.431	0.200031	19.4162	23.0165	0	0	
1067.42	8.80264	269.9	0.200031	20.4188	22.6159	0	0	
1069.06	10.0033	269.703	0.200031	22.2223	20.8141	0	0	
1070.69	11.4043	269.093	0	23.825	21.4148	0	0	
1072.33	10.8038	277.845	0	24.0256	19.0121	0	0	
1073.97	11.8046	270.521	0	28.8349	17.6106	0	0	
1075.61	12.2048	272.752	0	28.6328	15.8083	0	0	
1077.25	11.4042	270.512	0	30.2367	17.4098	0.200006	0	
1078.89	10.8037	267.26	0	33.242	16.8091	0.200006	0	
1080.52	11.0038	264.405	0	38.4542	19.2124	0.200006	0	
1082.16	9.20275	263.193	0.200031	37.0516	20.6139	0.200006	0	
1083.8	8.20229	268.287	0.200031	42.0666	21.4148	0.200006	0	
1085.44	7.80207	267.066	0.200031	43.8704	19.4128	0	0	
1087.08	7.20168	265.637	0.200031	44.07	22.0165	0	0	
1088.72	6.20134	257.505	0.200031	42.6682	22.4169	0	0	
1090.36	6.4014	261.378	0	46.678	23.4187	0	0	
1091.99	6.80155	255.269	0	50.4936	25.4218	0.200006	0	
1093.63	7.00165	254.862	0	50.8962	27.6244	0.200006	0	
1095.27	7.00176	253.456	0	52.9023	27.0233	0.200006	0	
1096.91	7.80201	257.522	0	60.1271	27.8244	0.200006	0	
1098.55	8.40228	255.274	0	64.144	28.2248	0.400012	0	
1100.19	8.60238	258.322	0	67.3586	27.8241	0.200006	0	
1101.82	9.60308	250.604	0	74.7883	30.2286	0.200006	0	
1103.46	9.40296	253.246	0	80.4125	32.0325	0.200006	0	
1105.1	9.80318	250.192	0	80.2125	31.8322	0.400012	0	
1106.74	9.60308	252.22	0	82.8278	30.6302	0.200006	0.200006	
1108.38	10.8041	256.289	0	81.8274	31.2317	0.400037	0.400024	
1110.02	10.0035	263.807	0	81.8264	30.6304	0.400037	0.400024	
1111.65	10.4036	257.703	0	85.0427	30.0287	0.400037	0.400024	
1113.29	9.60327	254.652	0	89.6688	32.434	0.200031	0.400024	
1114.93	9.20318	247.948	0	95.0966	35.2396	0.200031	0.200018	
1116.57	8.60255	243.083	0	100.929	34.8385	0.200006	0	
1118.21	8.00223	235.965	0	106.564	37.8461	0.200006	0.200031	
1119.85	8.2025	238.198	0	110.999	39.4497	0.400024	0.200031	
1121.48	9.40308	240.636	0	116.84	39.0487	0.400024	0.200031	
1123.12	10.0033	250.598	0	120.875	40.6533	1.00008	0.200031	
1124.76	10.6037	245.31	0	125.308	44.0611	1.00008	0.200031	
1126.4	10.804	241.256	0	129.945	41.6548	1.00008	0	
1128.04	10.2035	239.833	0	140.43	41.4548	0.800061	0	
1129.68	9.60316	238.824	0	144.266	41.2548	1.00007	0	
1131.32	10.2037	231.297	0	150.13	39.4493	0.400012	0	
1132.95	10.6041	234.536	0	156.59	38.8482	0.200006	0	
1134.59	10.4038	238.181	0	160.831	43.8633	0.200006	0	
1136.23	10.0036	242.435	0.200018	162.046	43.6623	0.200006	0	
1137.87	10.0037	242.235	0.400037	167.699	46.0691	0	0	
1139.51	11.0047	235.127	0.400037	174.773	49.8804	0	0	
1141.15	10.6045	228.434	0.400037	183.278	51.0832	0.400024	0	
1142.78	11.2048	229.849	0.400037	192.387	45.4668	0.600031	0	
1144.42	11.6049	230.074	0.200018	199.063	50.2825	0.800037	0	
1146.06	13.8068	232.089	0	211.625	52.088	0.800037	0	
1147.7	12.2053	242.441	0	219.732	50.6835	0.800037	0	
1149.34	10.004	250.756	0	229.06	54.698	0.600018	0	
1150.98	10.004	241.442	0	240.831	62.1209	0.600018	0	
1152.61	11.405	239.599	0.400049	252.827	66.3391	0.600018	0	
1154.25	9.80341	236.36	0.600055	255.456	66.5405	0.800024	0	
1155.89	10.2037	236.976	0.600055	260.332	71.1567	1.00003	0	
1157.53	11.4041	230.688	0.600055	270.092	72.362	1.00003	0	
1159.17	12.0045	234.529	0.600055	272.929	72.162	1.00004	0	
1160.81	11.204	234.326	0.400037	276.382	71.358	1.20009	0	
1162.44	11.0039	227.835	0.200031	290.843	73.968	1.00008	0	
1164.08	10.8037	222.349	0.200031	305.504	72.9646	0.800073	0	
1165.72	11.4041	218.705	0.200031	312.864	73.3665	0.600067	0	
1167.36	11.8045	219.929	0.200031	321.005	73.1648	0.800098	0	
1169	11.6042	212.637	0	335.483	74.9741	0.800073	0	
1170.64	10.8038	218.105	0	340.605	74.7741	0.800073	0	
1172.28	10.8038	213.645	0	349.834	75.9793	0.800073	0	
1173.91	10.0033	213.838	0	356.768	79.7994	0.800073	0	
1175.55	9.60294	214.441	0	367.39	85.2264	0.800098	0	
1177.19	10.0032	217.068	0.400049	377.629	85.6286	0.400073	0	
1178.83	11.2039	216.668	0.600067	384.582	90.2516	0.800098	0	
1180.47	10.8037	214.443	0.600067	382.102	92.4612	0.800098	0	
1182.11	11.4041	214.85	0.600067	389.077	92.2612	0.800098	0	
1183.74	11.2039	210.393	0.600067	397.697	89.848	0.800073	0	
1185.38	10.8038	212.829	0.200018	396.246	90.2503	1.00008	0	
1187.02	9.80313	207.358	0	413.062	89.0434	0.600055	0	
1188.66	9.80323	206.138	0.200006	425.978	93.8714	1.0001	0	
1190.3	10.2037	201.692	0.200006	439.15	94.2726	1.0001	0.400049	
1191.94	10.2037	198.651	0.200006	453.756	98.498	1.00008	0.400049	
1193.57	10.6038	192.163	0.200006	479.279	99.3039	0.800073	0.400049	
1195.21	10.8039	196.215	0.400012	474.765	100.914	1.20012	0.400049	
1196.85	11.6043	200.871	0.200006	491.014	99.9079	1.00008	0.400049	
1198.49	11.6042	202.278	0.200006	502.75	100.109	1.00008	0	
1200.13	11.0039	201.478	0.600055	512.864	102.323	0.800061	0	
1201.77	10.0034	199.048	0.600055	508.11	104.938	0.800061	0	
1203.4	9.40312	192.16	0.400049	525.417	104.534	0.400012	0	
1205.04	8.40254	184.878	0.400049	522.772	102.925	0.400012	0	
1206.68	9.40371	183.859	0.400049	521.745	101.316	0.600018	0	
1208.32	8.80332	183.852	0	516.349	102.524	0.400012	0	
1209.96	8.60323	182.643	0	529.578	100.713	0.600018	0	
1211.6	9.20362	185.884	0	527.75	107.36	0.800024	0	
1213.24	10.6045	186.084	0	546.37	111.79	0.800024	0	
1214.87	9.80368	182.452	0	552.595	113.6	1.20007	0	
1216.51	10.204	185.904	0	560.253	107.562	1.6001	0	
1218.15	11.0044	187.929	0.200006	566.094	110.381	1.40009	0.200018	
1219.79	11.4045	189.35	0.200006	570.203	104.739	1.60011	0.200018	
1221.43	10.8041	191.775	0.200006	572.049	108.567	1.80015	0.200018	
1223.07	9.60309	199.262	0.200006	593.237	112.999	1.4001	0.200018	
1224.7	10.8038	200.67	0.200006	601.329	122.262	1.40013	0.200018	
1226.34	10.6036	195.813	0	603.375	124.075	1.60013	0	
1227.98	10.0032	192.973	0	625.402	125.887	1.40012	0.200006	
1229.62	10.0032	189.333	0	633.091	121.253	1.40009	0.200006	
1231.26	10.6036	186.709	0	625.589	119.238	1.40009	0.200006	
1232.9	10.0031	182.056	0	643.657	114.602	1.80014	0.200006	
1234.53	9.803	181.254	0	650.124	108.562	2.00016	0.200006	
1236.17	11.0038	183.681	0	639.698	111.182	2.20018	0	
1237.81	11.2039	180.443	0	640.098	114.807	2.00017	0	
1239.45	10.2035	177.602	0	641.946	112.596	2.00018	0	
1241.09	8.60282	171.135	0	632.169	115.62	1.20009	0	
1242.73	9.4033	174.969	0	636.358	122.264	0.800061	0	
1244.36	8.00241	169.103	0	652.994	123.271	1.00009	0	
1246	7.60214	172.746	0.200018	659.05	126.298	1.00009	0	
1247.64	8.80272	172.333	0.400024	664.054	131.733	1.2001	0.200031	
1249.28	10.6035	179.208	0.400024	672.989	129.918	1.2001	0.200031	
1250.92	10.4034	180.224	0.600043	681.491	130.926	1.80019	0.200031	
1252.56	10.8037	182.856	0.800061	687.342	132.539	1.60016	0.200031	
1254.2	12.6055	185.285	0.600043	681.51	131.53	1.60015	0.200031	
1255.83	12.4055	185.291	0.400037	685.888	130.522	1.40014	0	
1257.47	10.4047	181.451	0.400037	696.544	130.119	2.0002	0	
1259.11	10.4048	181.658	0.200018	693.873	129.716	1.60011	0	
1260.75	11.0053	180.249	0	681.795	126.895	1.80018	0	
1262.39	9.60385	176.404	0.200018	685.151	122.056	1.80019	0	
1264.03	10.2042	179.038	0.200018	680.173	120.041	2.40027	0.200006	
1265.66	11.4047	180.852	0.200018	676.811	121.86	2.00022	0.200006	
1267.3	11.6047	180.445	0.200018	685.754	122.869	1.80021	0.200006	
1268.94	11.0042	181.86	0.200018	695.946	125.49	1.40013	0.200006	
1270.58	10.2035	185.917	0	710.951	125.087	1.40012	0.200006	
1272.22	10.0035	182.473	0	723.456	130.731	1.00007	0	
1273.86	10.8038	180.046	0.400049	725.772	131.332	1.00007	0	
1275.49	10.2037	175.392	0.400049	725.345	126.9	1.20007	0	
1277.13	10.6039	169.729	0.400049	731.643	128.512	1.40009	0	
1278.77	11.2043	162.641	0.400049	724.13	131.131	2.00018	0	
1280.41	11.004	162.441	0.800098	732.304	128.711	2.00018	0.200043	
1282.05	10.2035	164.06	0.400049	739.61	132.946	2.20023	0.200043	
1283.69	10.4035	167.7	0.400049	744.644	137.377	2.20023	0.200043	
1285.32	10.2034	174.577	0.400049	741.489	135.763	2.00021	0.200043	
1286.96	10.804	182.457	0.600055	756.547	134.756	1.20011	0.200043	
1288.6	10.6038	183.471	0.400024	765.173	133.749	0.800061	0	
1290.24	12.0048	187.914	0.400024	759.787	129.716	0.600018	0	
1291.88	11.2043	180.437	0.400024	759.768	123.876	0.600018	0	
1293.52	11.8047	172.548	0.400024	766.264	125.691	0.800037	0	
1295.16	10.8039	170.119	0.200018	764.816	127.505	0.800037	0	
1296.79	9.80341	167.289	0	767.729	127.908	0.800037	0	
1298.43	8.40263	168.1	0	783.606	127.907	1.00005	0	
1300.07	9.40314	178.206	0.200018	781.74	133.344	0.800049	0	
1301.71	8.20241	179.222	0.400037	790.96	131.127	0.800049	0	
1303.35	7.60214	177.213	0.400037	800.388	131.328	1.20007	0	
1304.99	8.60258	175.598	0.400037	788.83	132.94	1.6001	0	
1306.62	9.00273	171.962	0.400037	780.234	134.149	1.6001	0	
1308.26	8.40238	169.125	0.200018	779.806	134.351	1.6001	0	
1309.9	9.40311	172.752	0	775.637	134.353	1.6001	0	
1311.54	11.2043	178.609	0	763.065	130.121	1.60012	0	
1313.18	11.6046	183.254	0.200006	762.646	131.533	1.2001	0	
1314.82	11.4043	183.246	0.400012	767.31	131.131	1.00008	0	
1316.45	11.4043	174.967	0.600018	770.062	130.931	1.4001	0	
1318.09	11.8045	170.926	0.600018	754.537	128.51	1.20009	0	
1319.73	11.4043	168.492	0.600018	762.677	134.355	0.800037	0	
1321.37	10.6037	171.528	0.400012	765.851	131.733	1.00004	0	
1323.01	10.6037	173.15	0.200006	770.443	131.933	1.00004	0	
1324.65	12.0047	174.564	0.200031	769.815	133.142	0.600018	0	
1326.28	11.004	176.395	0.200031	781.975	137.577	1.00007	0	
1327.92	9.80324	169.528	0.200031	774.873	136.972	1.00007	0	
1329.56	10.6038	160.633	0.400037	772.337	133.551	1.00008	0	
1331.2	11.004	157.393	0.400037	758.271	136.174	1.40013	0	
1332.84	10.2037	161.23	0.400037	763.163	136.174	2.00022	0	
1334.48	10.2038	157.793	0.400037	761.03	129.321	1.60017	0	
1336.12	11.2043	162.84	0.400037	761.23	127.308	2.00022	0	
1337.75	10.4038	169.11	0.200031	765.664	129.519	2.40026	0	
1339.39	10.0036	167.495	0.400037	762.99	121.254	2.00021	0.200006	
1341.03	10.804	171.937	0.200006	762.872	120.451	2.20021	0.400012	
1342.67	11.6044	168.911	0.200006	771.059	124.28	2.40023	0.400012	
1344.31	10.8039	170.536	0.200006	771.497	125.286	2.20019	0.400012	
1345.95	12.4055	164.463	0.200006	762.882	125.89	1.60013	0.400012	
1347.58	13.4062	168.918	0	764.083	131.734	1.80015	0.200006	
1349.22	12.4055	165.081	0	759.908	129.311	1.40008	0.200006	
1350.86	11.2047	171.74	0.400024	745.245	127.096	1.60011	0.200006	
1352.5	11.4048	169.309	0.400024	749.63	129.718	1.4001	0.200006	
1354.14	10.4035	169.916	0.400024	764.95	130.323	1.60012	0.400012	
1355.78	9.40289	166.677	0.400024	768.737	127.299	1.4001	0.400012	
1357.41	9.00277	164.665	0.400024	769.385	128.508	1.00008	0.200006	
1359.05	10.4037	166.477	0	773.577	124.882	0.400024	0.600104	
1360.69	10.2037	165.87	0	773.167	122.866	1.20012	0.600104	
1362.33	10.6041	167.897	0	771.674	123.471	1.0001	0.400098	
1363.97	11.6047	166.276	0	776.267	127.101	1.00013	0.400098	
1365.61	12.205	163.845	0	783.152	129.723	1.00013	0.400098	
1367.24	11.2043	161.632	0	801.433	132.541	1.20015	0	
1368.88	12.405	162.645	0	799.516	130.322	1.0001	0	
1370.52	11.004	163.256	0	780.86	128.508	1.20011	0	
1372.16	10.4036	158.618	0.400024	780.669	123.87	1.4001	0	
1373.8	10.4036	163.067	0.400024	771.899	122.458	1.80013	0	
1375.44	11.6044	166.906	0.400024	761.799	129.314	2.00013	0	
1377.08	10.8038	164.282	0.800073	754.288	129.114	1.8001	0	
1378.71	11.8043	161.641	0.800073	769.353	131.533	2.00012	0.200018	
1380.35	11.8043	161.642	0.600067	760.554	127.106	1.8001	0.200018	
1381.99	11.4041	161.44	1.00009	769.791	124.287	1.60009	0.200018	
1383.63	10.2032	155.572	1.00009	766.626	119.245	1.80012	0.200018	
1385.27	10.8036	150.724	0.600043	778.383	118.439	1.6001	0.200018	
1386.91	10.6035	150.126	0.600043	773.796	119.246	1.6001	0	
1388.54	11.204	156.997	0.400024	786.584	128.109	1.80012	0	
1390.18	11.6042	157.593	0.200006	775.433	128.509	1.80012	0	
1391.82	11.4041	162.243	0.400049	776.272	131.532	1.60009	0	
1393.46	11.6043	170.13	0.400049	777.712	131.531	1.40008	0	
1395.1	11.204	170.537	0.400049	774.177	129.514	1.20006	0	
1396.74	10.8037	167.701	0.600079	767.663	126.488	1.00004	0	
1398.37	10.4035	167.705	0.600079	763.524	125.684	1.00004	0.200031	
1400.01	10.4036	162.248	0.400037	769.399	125.482	1.00007	0.200031	
1401.65	11.0041	161.017	0.600043	767.958	131.13	1.80016	0.200031	
1403.29	11.2042	160.004	1.00012	765.208	133.353	2.00018	0.200031	
1404.93	10.6039	161.819	0.800085	755.371	137.991	2.00018	0.200031	
1406.57	10.804	161.828	0.80011	766.875	140.411	2.2002	0	
1408.2	11.6044	167.485	1.00014	768.986	136.182	2.20018	0	
1409.84	11.0038	163.454	0.800134	758.466	132.954	2.00017	0	
1411.48	11.0038	163.858	0.600079	755.319	129.725	2.2002	0	
1413.12	12.6051	168.111	0.800098	753.23	120.657	2.60029	0	
1414.76	12.2048	170.536	0.600067	752.6	119.446	2.20026	0	
1416.4	12.6052	170.142	0.400037	749.039	124.281	2.00026	0	
1418.04	11.2043	173.368	0.600043	762.48	121.256	1.60017	0	
1419.67	10.4039	174.782	0.400024	771.255	125.489	1.60017	0	
1421.31	10.4039	173.773	0.200006	774.58	127.702	1.80018	0	
1422.95	11.6047	172.76	0.200006	774.809	125.887	2.40023	0	
1424.59	11.2044	170.728	0.400024	765.812	123.669	3.00031	0	
1426.23	11.6046	170.739	0.200018	754.502	123.067	3.20035	0.200055	
1427.87	12.2049	170.735	0.200018	744.039	117.019	2.6003	0.200055	
1429.5	11.004	164.256	0.200018	746.575	115.409	2.20023	0.200055	
1431.14	11.2042	159.61	0.200018	745.097	114.404	2.0002	0.200055	
1432.78	10.6038	156.782	0	745.069	112.591	1.80015	0.200055	
1434.42	10.2036	158.596	0.400049	739.379	112.995	2.00016	0	
1436.06	9.80334	159.206	0.400049	741.267	111.988	2.20016	0	
1437.7	10.804	162.239	0.600055	741.686	118.234	2.4002	0	
1439.33	9.60326	167.285	0.600055	731.807	118.837	2.20018	0	
1440.97	10.604	171.53	0.600055	731.816	115.816	1.60012	0	
1442.61	10.2038	168.701	0.200006	736.422	118.03	1.00007	0	
1444.25	11.2044	168.095	0.400024	745.836	118.837	1.20011	0	
1445.89	9.20305	168.702	0.400037	750.452	118.635	0.600055	0	
1447.53	9.60319	168.908	0.400037	760.337	124.681	0.400049	0.200031	
1449.16	9.20287	164.463	0.400037	755.752	126.092	0.600055	0.200031	
1450.8	10.0033	166.894	0.600055	753.452	125.286	0.600055	0.200031	
1452.44	11.0042	170.335	0.600043	752.023	124.481	0.600055	0.200031	
1454.08	11.6045	169.528	1.00012	757.257	125.895	0.600055	0.200031	
1455.72	12.0048	167.913	1.00012	743.863	119.446	0.800061	0	
1457.36	10.604	167.917	1.00012	742.364	123.676	1.00008	0	
1459	11.4045	164.076	1.00012	750.979	121.862	1.20009	0	
1460.63	10.0034	161.849	1.20018	741.741	127.504	1.00004	0	
1462.27	10.804	161.859	0.600092	730.636	122.664	1.20005	0	
1463.91	10.0034	160.249	0.600092	741.105	122.461	1.20005	0	
1465.55	10.6037	163.079	0.600092	745.287	120.446	1.00003	0	
1467.19	9.60314	159.44	0.400073	739.4	124.274	1.00003	0	
1468.83	9.40301	155.401	0	746.523	120.645	1.20005	0.200006	
1470.46	8.60247	157.206	0	750.719	127.703	1.20005	0.200006	
1472.1	9.80354	158.619	0	751.302	129.919	1.00004	0.200006	
1473.74	10.2038	158.617	0	753.614	127.504	0.800037	0.200006	
1475.38	10.6039	163.256	0	750.093	125.29	0.800037	0.200006	
1477.02	10.804	166.488	0	753.656	126.499	0.600018	0	
1478.66	10.6039	166.49	0	744.217	122.869	0.400012	0	
1480.29	9.80308	167.692	0.200055	735.437	124.683	0.400012	0	
1481.93	9.20294	169.718	0.200055	735.265	127.303	0.400012	0	
1483.57	9.60336	173.759	0.200055	755.579	130.929	0.800061	0	
1485.21	9.00292	176.381	0.200055	751.635	128.713	1.00008	0	
1486.85	9.60327	173.956	0.600104	769.003	127.703	1.20011	0	
1488.49	8.40269	171.131	0.400049	766.087	128.715	1.20011	0	
1490.12	9.40324	167.892	0.400049	759.174	128.309	1.60013	0	
1491.76	10.0036	156.995	0.400049	741.343	120.251	1.4001	0	
1493.4	10.4039	158.413	0.600079	738.993	119.245	1.60017	0	
1495.04	9.80365	158.41	0.200031	728.769	119.849	2.0002	0	
1496.68	10.8041	156.389	0.400037	735.268	116.621	2.0002	0	
1498.32	9.20318	158.612	0.400037	733.553	117.627	1.60017	0	
1499.96	7.40202	167.287	0.400037	729.36	125.281	2.00024	0.200006	
1501.59	6.80164	163.044	0.200006	732.939	129.11	1.40015	0.200006	
1503.23	7.20188	166.288	0.200006	729.164	121.859	1.40015	0.400037	
1504.87	7.00187	168.304	0.200031	735.219	121.456	1.60016	0.400037	
1506.51	8.40265	164.66	0.200031	751.976	119.844	1.80018	0.400037	
1508.15	9.80346	163.044	0.200031	768.746	117.831	1.60013	0.200031	
1509.79	10.4037	163.242	0.600079	777.789	118.636	2.00016	0.200031	
1511.42	9.8033	158.988	0.600079	785.315	121.656	1.4001	0	
1513.06	9.60319	162.635	0.600055	793.311	119.24	2.0002	0	
1514.7	9.20292	166.887	0.600055	786.411	120.449	2.00018	0	
1516.34	7.80211	167.295	0.600055	769.442	120.449	1.60015	0	
1517.98	7.40191	168.509	0.400024	748.676	117.432	1.40013	0	
1519.62	8.20235	166.492	0.600043	736.355	124.892	1.60013	0.200006	
1521.25	7.40196	162.451	0.400037	722.276	127.311	1.00004	0.200006	
1522.89	8.60291	158.406	0.400037	714.925	130.741	1.00004	0.200006	
1524.53	9.20319	159.008	0.400037	727.272	127.918	1.40008	0.200006	
1526.17	10.4041	154.57	0.200018	733.533	131.742	1.6001	0.400012	
1527.81	9.20349	161.45	0.200018	743.959	129.32	1.80012	0.200006	
1529.45	9.20349	158.417	0.200018	735.418	135.57	1.60011	0.200006	
1531.08	8.00243	156.398	0.200018	743.178	133.149	1.60011	0.200006	
1532.72	9.00313	154.576	0.200018	732.703	133.349	1.00005	0.200006	
1534.36	7.60216	161.236	0.200018	729.594	130.728	0.800037	0	
1536	8.80275	158.591	0	723.354	127.3	0.600018	0	
1537.64	10.0033	158.998	0.200018	734.207	120.04	1.20007	0	
1539.28	10.0033	162.631	0.400037	728.737	119.033	1.20009	0	
1540.92	9.2028	163.643	0.400037	722.06	118.228	1.40009	0	
1542.55	10.2033	160.005	0.400037	722.487	112.591	1.4001	0	
1544.19	9.80307	159.405	0.400037	712.667	111.382	2.0002	0	
1545.83	9.40285	161.233	0.200018	703.702	108.765	1.40014	0.200018	
1547.47	10.4036	160.221	0.200018	703.302	107.555	1.60017	0.200018	
1549.11	11.204	160.017	0.200018	717.708	112.394	2.00026	0.200018	
1550.75	11.204	156.99	0.400049	708.072	117.831	2.00024	0.200018	
1552.38	10.6038	151.338	0.400049	726.674	122.87	1.40015	0.200018	
1554.02	10.8039	151.114	0.400049	737.324	125.086	1.60017	0	
1555.66	10.0035	153.738	0.200031	745.709	128.514	1.20012	0	
1557.3	8.20247	149.502	0.400061	740.537	126.696	1.00005	0	
1558.94	8.60277	153.946	0.200031	743.682	125.084	0.800049	0	
1560.58	9.20297	154.753	0.200031	740.968	124.684	0.800061	0	
1562.21	9.40308	155.574	0.400037	741.178	124.281	0.600043	0	
1563.85	9.20285	153.154	0.400037	740.987	123.679	0.600043	0	
1565.49	9.80312	158.81	0.400012	746.187	122.873	0.400024	0.200018	
1567.13	10.8041	157.798	0.600043	752.269	125.693	0.600031	0.200018	
1568.77	10.8041	159.812	0.800049	744.32	121.66	0.800037	0.200018	
1570.41	11.4045	155.772	0.600043	735.557	124.882	0.800037	0.400024	
1572.04	11.4045	159.207	0.600043	726.982	125.28	1.20006	0.400024	
1573.68	11.4044	156.179	0.400037	721.944	121.052	1.20007	0.200006	
1575.32	10.0032	157.189	0.200006	725.901	116.218	1.80016	0.200006	
1576.96	11.8046	159.216	0	731.929	115.209	1.40014	0.200006	
1578.6	11.2045	163.852	0.200006	743.616	110.98	2.0002	0	
1580.24	11.6047	163.241	0.200006	745.28	108.561	2.0002	0	
1581.88	11.8048	166.474	0.200006	730.86	115.008	1.80018	0	
1583.51	11.0044	161.632	0.200006	724.805	120.247	1.20009	0.200006	
1585.15	10.2036	160.218	0.400049	716.87	124.077	1.80014	0.400024	
1586.79	9.80312	160.634	0.200043	704.93	122.065	2.00018	0.400024	
1588.43	10.0034	158.218	0.200043	707.213	123.88	2.00018	0.400024	
1590.07	10.4037	152.564	0.200043	723.337	121.259	2.20019	0.400024	
1591.71	12.4051	157.009	0.200043	727.099	117.833	2.80028	0.200018	
1593.34	12.205	159.223	0	730.025	115.212	2.40023	0	
1594.98	12.0049	159.822	0	733.16	124.074	1.60013	0	
1596.62	10.6041	162.44	0.200031	726.886	119.64	1.40012	0.200006	
1598.26	11.8051	167.49	0.200031	714.716	123.877	1.80016	0.200006	
1599.9	11.2047	167.293	0.400061	710.518	123.674	1.20007	0.200006	
1601.54	9.80411	165.684	0.400061	706.558	123.877	1.20009	0.200006	
1603.17	10.8046	170.135	0.600067	704.904	124.484	1.40009	0.200006	
1604.81	11.8053	167.104	0.600067	708.639	131.14	1.20009	0	
1606.45	10.6042	166.286	0.800073	714.722	124.286	1.00005	0	
1608.09	9.60336	163.046	0.800073	722.013	124.487	0.800049	0	
1609.73	10.0033	162.639	1.00008	735.58	123.883	0.800037	0	
1611.37	9.60304	158.79	0.800073	735.978	118.438	1.00005	0	
1613	9.40273	158.188	0.600043	734.324	116.416	1.40008	0	
1614.64	8.60229	157.381	0.400037	729.953	119.034	1.00005	0	
1616.28	10.604	164.448	0.200006	726.616	124.476	1.80015	0	
1617.92	11.4045	166.268	0	715.181	126.288	2.2002	0	
1619.56	11.6048	163.645	0.200031	722.545	129.514	2.00018	0	
1621.2	11.805	162.434	0.200031	720.044	129.715	1.60016	0	
1622.84	13.2059	164.05	0.400061	725.069	131.932	1.60016	0	
1624.47	11.8047	163.655	0.400061	724.859	125.485	1.00007	0	
1626.11	11.8047	165.878	0.400061	732.552	125.285	0.800085	0	
1627.75	11.6044	169.311	0.400049	728.345	128.31	1.20017	0.200006	
1629.39	11.004	168.509	0.400049	738.819	127.102	1.40018	0.200006	
1631.03	10.804	167.509	0.200018	744.259	127.509	1.40018	0.200006	
1632.67	10.0034	163.657	0.200018	743.877	128.113	1.40018	0.200006	
1634.3	9.00279	160.228	0.200018	734.295	123.681	1.40013	0.200006	
1635.94	9.20292	161.037	0.200006	738.493	116.624	1.20006	0	
1637.58	10.0034	162.654	0.200006	742.478	117.227	1.20006	0	
1639.22	10.0032	159.413	0.400024	734.894	113.398	1.80012	0	
1640.86	10.2033	161.852	0.400024	738.477	113.598	1.60011	0	
1642.5	12.6052	162.043	1.00012	745.366	119.037	1.40009	0	
1644.13	11.8048	156.595	0.80011	749.092	122.26	1.00007	0	
1645.77	11.2044	157.593	0.80011	725.264	116.621	1.00007	0	
1647.41	9.60354	162.45	0.600092	723.811	121.254	0.600031	0	
1649.05	9.60354	164.677	0.600092	718.748	126.695	0.600031	0	
1650.69	7.60183	165.499	0	717.675	128.107	0.800073	0	
1652.33	8.00203	169.127	0.200006	695.727	127.304	1.00009	0	
1653.96	8.80252	169.945	0.200006	713.466	134.355	0.800085	0	
1655.6	11.0039	167.106	0.400012	727.516	133.347	0.800073	0	
1657.24	11.0039	158.612	0.400012	738.379	129.92	0.800073	0	
1658.88	12.8054	156.984	0.600031	745.906	126.293	0.400024	0	
1660.52	14.4069	151.736	0.600031	757.002	126.693	0.400012	0	
1662.16	13.8065	153.553	0.600031	761.432	121.049	0.400012	0	
1663.8	12.4054	152.341	0.600031	740.297	119.64	0.400012	0	
1665.43	12.6057	157.385	0.600031	739.478	119.237	1.00007	0	
1667.07	11.8049	157.392	0.400012	739.687	121.254	1.20009	0	
1668.71	11.004	163.043	0.400024	746.995	124.278	1.20009	0	
1670.35	11.6045	154.564	0.600031	736.532	127.301	1.20009	0	
1671.99	12.6052	153.154	0.400024	741.946	123.07	1.80023	0	
1673.63	11.8047	155.179	0.400024	735.491	127.307	1.6002	0	
1675.26	12.0048	155.579	0.400024	730.437	126.498	1.8002	0	
1676.9	13.206	148.313	0.200006	733.997	122.466	2.00022	0.200006	
1678.54	12.2053	153.15	0.200006	733.352	121.86	2.00022	0.200006	
1680.18	10.8044	161.23	0.200006	742.424	124.682	1.40008	0.200006	
1681.82	11.0045	156.373	0.400037	737.98	117.424	1.20006	0.400012	
1683.46	10.2038	159.808	0.800061	734.443	116.618	1.20006	0.400012	
1685.09	8.60251	166.468	0.800061	725.439	119.037	0.800037	0.200006	
1686.73	9.00282	167.077	0.600055	726.231	116.016	1.20006	0.200006	
1688.37	9.20291	161.418	0.600055	720.518	116.013	1.00005	0.200006	
1690.01	10.0033	160.816	0.400024	720.336	119.638	0.800049	0	
1691.65	11.0042	163.236	0.200031	711.168	118.429	0.800049	0	
1693.29	9.80345	161.02	0.200031	701.986	116.214	1.00005	0.200006	
1694.92	10.2036	161.828	0.400037	706.234	120.444	0.800037	0.200006	
1696.56	10.4039	161.429	0.600067	706.025	116.821	1.20006	0.200006	
1698.2	9.60347	159.011	0.800073	713.336	114.203	1.40007	0.200006	
1699.84	9.40346	152.956	1.00012	720.823	116.219	1.00004	0.200006	
1701.48	11.6049	151.739	1.00012	734.62	115.213	0.800037	0	
1703.12	12.2053	149.313	1.00013	717.695	114.81	0.800037	0	
1704.76	12.2051	149.719	1.20012	717.877	118.835	0.400012	0	
1706.39	13.4058	152.951	1.20012	710.356	122.663	0.400012	0	
1708.03	12.0047	148.911	0.800049	721.486	121.252	0.800037	0	
1709.67	12.4051	150.121	0.800049	713.108	120.043	1.60013	0	
1711.31	11.0042	150.328	0.600031	723.54	119.238	1.60015	0	
1712.95	11.8049	152.141	0.200006	727.321	120.85	1.60015	0	
1714.59	12.0051	154.155	0	727.774	118.034	1.60015	0	
1716.22	13.2059	157.784	0	709.983	115.818	1.20012	0	
1717.86	11.6045	152.541	0	708.538	113.603	0.800049	0	
1719.5	11.8046	151.525	0	711.42	110.985	1.00008	0	
1721.14	10.2036	151.126	0	705.565	106.553	1.20009	0	
1722.78	9.00277	141.842	0.400024	716.623	102.927	1.00008	0	
1724.42	8.20228	143.668	0.400024	729.795	107.357	1.4001	0	
1726.05	8.80286	145.085	0.600031	728.534	110.175	1.20009	0	
1727.69	10.404	147.714	0.600031	733.576	114.81	1.20006	0	
1729.33	12.0049	148.52	0.600031	735.04	111.792	1.00005	0	
1730.97	13.4061	155.389	0.600079	729.576	116.219	1.80015	0	
1732.61	13.0057	155.793	0.600079	726.61	116.018	1.40013	0	
1734.25	12.8054	159.825	0.600079	744.604	118.435	1.80018	0	
1735.88	11.6045	161.649	0.600079	734.147	113.598	1.80018	0.200018	
1737.52	10.8039	157.606	0.600079	746.516	120.443	2.40023	0.200018	
1739.16	10.8039	154.976	0.200006	742.752	123.668	1.60013	0.200018	
1740.8	11.6044	156.786	0.200006	753.458	122.663	2.20019	0.200018	
1742.44	10.8039	160.837	0	739.642	118.637	1.80014	0.400024	
1744.08	11.6045	157.999	0.200018	740.312	118.235	1.60012	0.400024	
1745.72	12.0048	157.397	0.200018	736.339	118.845	1.20007	0.400024	
1747.35	12.6052	157.398	0.400024	744.501	116.829	1.6001	0.400024	
1748.99	13.6061	155.985	0.400024	731.104	117.229	1.40007	0.600031	
1750.63	14.0063	148.305	0.600031	737.397	117.631	1.80012	0.400024	
1752.27	13.406	147.903	0.600031	741.114	122.263	2.2002	0.400037	
1753.91	12.6055	149.113	0.600031	729.994	123.671	2.2002	0.400037	
1755.55	11.0043	156.381	0.400024	728.966	119.643	2.00018	0.600043	
1757.18	10.0034	150.735	0.400024	732.484	117.628	2.00018	0.400037	
1758.82	10.8041	150.734	0.200018	727.872	123.873	1.80015	0.400037	
1760.46	10.804	152.553	0.400073	729.809	123.27	1.20006	0.200006	
1762.1	11.4043	149.727	0.400073	740.09	118.231	1.40008	0.200006	
1763.74	12.6056	147.497	0.400073	730.032	119.238	1.6001	0	
1765.38	12.6057	148.495	0.600092	729.85	122.664	1.40008	0	
1767.01	12.0051	149.702	0.80011	727.768	118.632	1.40008	0	
1768.65	11.8049	150.509	0.400037	723.411	116.616	1.60009	0	
1770.29	11.4047	151.518	0.400037	722.555	117.22	1.60009	0	
1771.93	10.4035	143.854	0.400037	726.725	120.04	1.60011	0	
1773.57	10.4034	147.083	0.600043	730.255	119.032	2.00016	0	
1775.21	10.0032	150.924	0.600031	732.965	120.846	2.20019	0	
1776.84	9.80311	146.884	0.600031	732.016	120.444	2.20019	0	
1778.48	10.4037	151.931	0.800073	735.349	119.035	2.00018	0	
1780.12	11.805	160.206	1.20012	737.259	117.827	2.20019	0	
1781.76	11.2047	161.018	0.800098	732.892	115.21	1.80015	0	
1783.4	12.8059	156.377	0.800122	725.995	112.592	1.60012	0	
1785.04	13.006	153.351	0.800122	731.693	115.613	1.40012	0.200018	
1786.68	13.6062	152.542	0.80011	723.757	120.449	1.2001	0.200018	
1788.31	11.4045	149.923	0.600067	714.755	119.239	1.2001	0.200018	
1789.95	11.8046	150.933	0.600067	714.828	120.043	1.00008	0.400037	
1791.59	11.204	152.543	0.600055	718.161	121.654	1.00008	0.400037	
1793.23	10.8038	156.987	0.600055	716.06	116.014	1.20011	0.200018	
1794.87	10.2034	148.92	1.00012	707.057	116.416	1.60013	0.200018	
1796.51	12.2048	140.647	0.80011	699.779	122.262	1.00008	0.200018	
1798.14	11.6047	133.383	1.00012	692.811	119.846	1.20009	0	
1799.78	11.6048	134.392	0.800098	696.356	112.802	1.40012	0	
1801.42	11.805	130.957	1.00012	696.33	116.426	2.20024	0	
1803.06	12.6056	134.186	0.400024	699.902	111.59	1.80021	0	
1804.7	11.6047	143.871	0.600055	709.485	106.752	1.80021	0	
1806.34	11.4044	150.333	0.400049	714.924	110.176	1.80021	0	
1807.97	10.0033	146.701	0.600055	713.879	117.221	1.60021	0	
1809.61	9.80354	148.517	0.600043	713.469	118.633	1.20011	0	
1811.25	8.20246	146.696	0.800049	724.96	119.639	1.40012	0	
1812.89	8.40293	143.257	0.600018	728.894	122.661	1.40012	0	
1814.53	7.60269	138.204	0.800061	725.995	123.064	1.60013	0	
1816.17	8.60351	137.8	0.600055	732.456	121.251	1.40009	0	
1817.8	9.00344	135.377	0.400049	729.33	117.02	1.40009	0	
1819.44	9.60375	133.563	0.200043	714.751	117.423	1.20009	0	
1821.08	9.20314	132.357	0.400061	717.557	112.587	1.40009	0	
1822.72	10.6038	131.759	0.200018	721.902	116.219	1.60012	0	
1824.36	11.6045	134.78	0.200018	707.713	117.024	1.80014	0	
1826	11.2042	137.403	0.400049	706.643	120.048	1.40009	0	
1827.64	10.804	147.09	0.600055	711.176	115.822	1.80012	0	
1829.27	11.2045	146.68	0.600055	712.59	114.212	1.80012	0	
1830.91	10.604	147.277	0.600055	706.349	109.976	1.40008	0	
1832.55	9.20288	141.632	0.600055	709.071	107.761	1.20006	0	
1834.19	11.0045	141.632	0.600031	713.493	107.156	1.40008	0	
1835.83	11.6048	135.575	0.400024	703.511	105.145	1.20009	0	
1837.47	10.604	133.156	0.200006	689.34	107.56	1.60013	0	
1839.1	11.6046	132.15	0.400024	685.567	107.963	1.60012	0.200006	
1840.74	11.2044	135.783	0.600043	688.918	110.582	1.60012	0.200006	
1842.38	10.4034	133.569	0.400037	679.532	111.185	1.80015	0.400012	
1844.02	11.2041	133.976	0.600055	688.296	115.61	2.20021	0.400012	
1845.66	11.6043	134.784	0.600055	682.832	118.23	1.80016	0.400012	
1847.3	11.4041	129.545	0.600055	692.856	118.431	1.80016	0.200006	
1848.93	11.2041	126.725	0.400037	682.612	115.411	1.80016	0.200006	
1850.57	10.0033	124.908	0.400037	674.884	110.783	1.60013	0	
1852.21	8.80244	126.117	0.400037	672.971	112.799	1.20005	0	
1853.85	9.00257	127.932	0.600055	673.403	107.362	1.40007	0	
1855.49	8.80244	127.124	0.400037	661.753	108.573	1.40007	0	
1857.13	9.00253	128.734	1.00016	661.736	107.365	1.40008	0	
1858.76	9.00253	126.113	1.00016	675.525	109.979	1.20006	0	
1860.4	9.40278	121.272	1.8003	682.607	111.99	1.60011	0	
1862.04	9.20265	117.036	1.80029	694.464	118.637	1.60011	0	
1863.68	9.20265	122.073	2.80044	692.532	115.413	1.80013	0	
1865.32	10.0031	121.061	2.40033	691.516	118.232	1.60011	0	
1866.96	10.6034	123.678	3.00042	688.758	121.457	1.60011	0	
1868.6	10.6036	127.107	2.40029	682.093	118.034	1.40008	0	
1870.23	10.0033	130.134	3.00038	676.469	115.817	1.20007	0	
1871.87	10.8039	127.314	2.80038	682.731	114.003	1.60015	0	
1873.51	10.6037	126.506	3.00038	692.744	116.42	1.60015	0	
1875.15	13.0061	129.331	3.80059	687.757	119.645	1.80016	0	
1876.79	12.4056	124.091	4.60079	697.577	122.061	1.40014	0	
1878.43	12.6057	125.706	6.00143	705.927	120.851	1.20012	0	
1880.06	10.8046	126.916	7.80247	701.364	119.444	1.00008	0	
1881.7	11.2049	130.954	10.2036	702.173	115.012	1.4001	0	
1883.34	8.40245	126.519	11.2044	705.925	109.369	1.00008	0	
1884.98	8.80267	126.32	13.2061	700.952	107.759	1.20009	0	
1886.62	8.60275	120.671	13.6066	691.135	108.161	1.4001	0	
1888.26	8.80282	121.672	14.0067	696.115	110.373	1.4001	0	
1889.89	8.60267	117.839	14.6075	696.16	110.777	1.00008	0	
1891.53	9.60321	115.019	18.0116	698.281	113.396	1.60013	0	
1893.17	10.0035	117.03	20.6148	694.278	109.973	1.40013	0	
1894.81	10.4036	117.636	23.6188	697.439	109.774	1.40012	0	
1896.45	11.2041	111.802	26.2222	697.248	111.388	1.20009	0	
1898.09	10.4036	111.398	30.8305	695.35	113.803	1.20009	0	
1899.72	9.20291	113.813	33.8377	700.328	108.367	0.800037	0	
1901.36	8.40252	110.588	39.8546	701.79	109.977	1.20006	0	
1903	8.40252	108.777	46.2722	706.425	106.553	1.20006	0	
1904.64	8.80266	114.82	52.0873	696.623	109.98	1.60013	0.200006	
1906.28	9.00288	109.786	60.7202	695.169	106.558	1.60013	0.200006	
1907.92	10.0035	111.399	70.3608	692.643	105.552	1.40013	0.200006	
1909.56	10.4036	115.027	75.5852	692.629	106.962	1.0001	0.200006	
1911.19	11.6043	114.629	83.8249	696.139	105.755	1.20012	0.400037	
1912.83	11.6043	113.214	96.4934	714.327	101.922	0.600031	0.200031	
1914.47	12.0046	114.823	109.586	710.998	102.726	0.600031	0.200031	
1916.11	11.4042	110.392	118.652	706.449	106.349	0.800037	0.200031	
1917.75	10.4038	106.766	130.735	712.979	106.753	1.40009	0.200031	
1919.39	8.60275	109.175	143.04	712.152	112.791	1.00007	0	
1921.02	9.60364	109.577	157.585	721.793	112.388	1.20009	0.200006	
1922.66	9.40338	113.405	172.963	743.959	109.773	1.40009	0.200006	
1924.3	8.20294	112.8	189.54	762.98	108.362	1.60011	0.200006	
1925.94	9.20333	114.413	217.513	765.055	105.543	1.40008	0.200006	
1927.58	10.4039	114.214	244.69	772.172	103.933	1.60009	0.200006	
1929.22	9.40303	113.004	269.466	776.532	107.56	1.80012	0	
1930.85	9.40303	112.199	294.497	775.942	111.987	1.80013	0	
1932.49	10.8036	112.402	335.087	773.644	112.994	1.60012	0.200006	
1934.13	12.405	110.786	365.555	779.053	115.813	1.2001	0.200006	
1935.77	13.0055	108.97	407.581	775.674	115.209	1.60015	0.200006	
1937.41	11.4047	108.376	444.285	773.594	109.37	1.80019	0.400012	
1939.05	11.2046	104.748	491.013	782.184	109.168	2.20023	0.400012	
1940.68	11.0045	106.36	526.513	789.311	107.759	2.20021	0.200006	
1942.32	10.0035	107.971	572.016	801.763	105.145	2.80027	0.600079	
1943.96	9.00278	108.174	617.934	801.144	101.321	3.00031	0.600079	
1945.6	11.6044	105.753	667.191	805.357	105.548	2.80027	0.400073	
1947.24	12.0048	103.541	721.512	798.198	104.541	2.80027	0.800098	
1948.88	11.8047	99.9202	786.049	803.855	106.354	3.00029	0.800098	
1950.52	12.0048	98.7107	851.942	809.693	112.596	2.80028	0.400024	
1952.15	11.8048	95.693	910.645	825.657	115.21	2.60024	0.400024	
1953.79	10.0035	93.0777	992.239	826.458	109.775	2.80028	0.400024	
1955.43	9.0028	95.0907	1065.56	831.482	109.373	2.60025	0	
1957.07	8.60263	97.3037	1142.47	832.366	109.371	2.60025	0.200006	
1958.71	8.00231	99.7204	1225.71	834.264	104.333	2.2002	0.400024	
1960.35	9.8039	95.8975	1342.13	838.652	102.724	2.20024	0.800049	
1961.98	9.804	93.0825	1444.61	839.565	99.7072	2.20024	1.00007	
1963.62	10.4043	94.0942	1575.19	843.364	100.714	2.80037	1.20007	
1965.26	10.8044	92.4813	1682.65	850.677	94.0749	3.80073	1.20007	
1966.9	10.6042	87.8509	1805.75	841.039	89.6506	4.20075	1.80015	
1968.54	10.0035	89.0585	1927.19	838.534	87.8415	4.80088	1.80015	
1970.18	11.0041	92.8769	2059.83	849.683	86.8376	4.60084	1.60013	
1971.81	10.0037	88.2444	2170.94	848.841	81.4063	4.60084	1.40013	
1973.45	10.4039	84.4254	2323.95	838.551	85.0257	4.40067	2.40042	
1975.09	10.0037	79.6025	2481.57	843.151	83.6188	5.40095	1.80034	
1976.73	8.80274	80.6066	2659.4	857.035	83.6177	4.60075	1.80041	
1978.37	8.40258	76.3865	2840.94	858.502	82.2105	4.80079	2.00045	
1980.01	10.0034	72.7689	3034.92	863.327	80.8038	4.20067	2.40048	
1981.64	11.2043	70.9622	3242.42	865.02	76.9834	3.6005	1.80027	
1983.28	11.0042	68.3529	3450.78	868.792	76.3797	2.80026	2.00031	
1984.92	12.4052	62.5268	3635.82	868.382	70.7561	2.60024	2.20034	
1986.56	12.2049	60.1164	3813.8	859.502	74.1714	3.60064	2.60035	
1988.2	11.8049	60.1178	3976.8	849.639	71.763	4.40083	3.00047	
1989.84	10.4039	58.7133	4163.06	838.884	74.1753	4.40083	4.00087	
1991.48	11.6047	57.9076	4360.21	831.774	73.9744	4.40083	5.00112	
1993.11	9.00316	56.9044	4536.08	806.719	75.7808	5.20104	5.80154	
1994.75	10.8048	58.9114	4740.25	807.15	71.1598	4.80084	7.20234	
1996.39	11.0048	53.693	4982.69	806.089	72.9656	5.00092	9.00323	
1998.03	11.605	54.4938	5193.6	814.069	67.3403	6.00136	8.40289	
1999.67	11.2049	50.8841	5400.14	796.828	66.5369	6.40145	8.80342	
2001.31	12.6054	51.2854	5623	786.589	63.7262	5.80126	10.0039	
2002.94	10.4037	47.2723	5865.94	766.448	62.3211	6.40158	10.8042	
2004.58	9.40307	47.8749	6186.34	758.463	59.7108	5.80142	11.2048	
2006.22	9.60322	42.2606	6470.65	748.796	58.5057	6.00143	12.2053	
2007.86	9.40296	45.2702	6807.65	751.156	55.0934	6.00155	14.4077	
2009.5	9.40296	44.2683	7166.11	758.251	57.5031	8.40304	14.808	
2011.14	11.004	43.0643	7482	759.68	56.0992	9.20363	14.0078	
2012.77	12.605	41.2602	7707.24	752.36	55.8985	9.6037	15.8101	
2014.41	11.0041	43.063	8021.59	740.234	57.5044	9.20359	17.0113	
2016.05	10.4039	40.4546	8258.8	747.337	57.7051	9.60361	17.4113	
2017.69	10.4039	35.4432	8590.68	760.359	54.6933	8.00232	20.2151	
2019.33	8.40257	32.2367	9036.93	764.979	54.8933	6.60151	24.4211	
2020.97	7.60198	31.6343	9528.94	779.003	53.6906	6.60151	27.2261	
2022.6	9.6032	30.2312	9929.48	798.293	50.6802	8.00232	32.2349	
2024.24	9.20308	28.427	10324.3	787.348	51.885	9.0029	36.8447	
2025.88	9.00296	28.6267	10594.7	783.355	52.2856	9.40317	40.2525	
2027.52	10.2038	29.4274	10832.7	795.352	52.6869	10.2037	42.6589	
2029.16	9.80373	28.8267	10931.9	785.523	51.4821	11.2043	41.6571	
2030.8	7.60245	26.0222	10910.7	768.758	49.8777	10.4038	44.2662	
2032.44	8.20258	23.8189	10944.8	774.83	45.8657	9.80354	45.2691	
2034.07	7.80239	23.8189	11002.4	766.439	45.0638	9.80344	46.474	
2035.71	6.60158	23.2185	10800.6	746.063	42.657	8.40266	49.6826	
2037.35	5.80111	22.6172	10554.7	750.665	42.8576	8.60281	55.4991	
2038.99	7.00162	22.6172	10660	800.384	46.6693	8.00238	61.9246	
2040.63	6.80161	23.6182	10687	821.232	48.273	7.20197	69.9605	
2042.27	7.40205	22.0166	10527.9	838.658	48.6736	7.40207	74.5799	
2043.9	7.40212	21.6153	10458.1	853.985	49.4762	8.60258	82.2167	
2045.54	8.00241	21.0144	10604.4	891.131	52.286	9.40332	92.8743	
2047.18	8.40267	21.8158	10505.8	878.21	50.28	10.4039	98.5101	
2048.82	8.60278	19.8134	10123.5	866.806	48.8768	11.4044	101.327	
2050.46	8.20244	19.0124	9882.55	867.037	43.6647	11.4044	112.797	
2052.1	10.0037	17.8107	9923.7	899.132	44.0658	10.8041	124.693	
2053.73	10.8041	17.0096	9796.24	900.618	39.6519	9.80311	130.945	
2055.37	10.4041	14.6069	9532.96	905.494	38.6483	9.60297	137.799	
2057.01	10.204	15.6079	9569.35	935.928	41.0544	10.4036	152.127	
2058.65	9.60371	16.2086	9784.6	983.869	48.4741	11.4043	165.866	
2060.29	8.00243	14.0069	9620.69	992.809	48.2736	12.6051	167.68	
2061.93	7.20199	13.006	9244.39	991.924	50.68	13.2055	179.816	
2063.56	7.60202	13.0059	9122.03	1003.78	49.076	13.2057	189.118	
2065.2	8.40237	11.6045	9261.92	1054.69	51.8876	13.0056	208.167	
2066.84	10.0032	11.0039	9030.41	1064.12	50.4832	13.0056	214.25	
2068.48	9.203	11.2039	8865.43	1098.4	52.6895	13.4058	228.835	
2070.12	9.20309	10.6035	8976.25	1153.41	53.6927	13.0057	240.193	
2071.76	7.60236	9.60319	9122.8	1215.42	59.7118	13.406	253.581	
2073.4	6.60191	9.00302	8690.95	1213.28	55.8978	13.2057	262.347	
2075.03	4.80103	9.00302	8337.64	1211.82	54.2927	13.4062	272.51	
2076.67	6.602	7.80258	8261	1249.4	53.8921	13.2062	294.296	
2078.31	6.00186	6.60214	8362.8	1320.96	57.1053	12.8058	316.736	
2079.95	5.60173	6.2019	8058.13	1340.91	57.1053	14.0068	328.334	
2081.59	5.40159	5.80148	8016.89	1399.41	61.5201	14.8077	340.373	
2083.23	6.20184	5.20121	8175.1	1500.81	66.136	14.8074	370.826	
2084.86	4.4009	6.00154	8183.09	1561.55	68.5442	15.4078	392.343	
2086.5	4.00068	5.80151	7724.28	1557.28	66.1337	16.0082	392.134	
2088.14	4.40085	6.20153	7478.3	1602.48	64.5275	15.4075	408.495	
2089.78	4.2009	6.20153	7526.77	1691.02	70.3569	16.4087	441.001	
2091.42	4.20099	5.60129	7564.82	1785.29	73.1712	16.0085	471.368	
2093.06	4.20103	4.40093	7362.6	1851.87	74.778	16.0085	491.18	
2094.69	5.80174	4.801	7421.01	1953.5	78.7959	17.4102	524.915	
2096.33	6.00176	4.00083	7701.07	2110.99	84.0189	18.8121	569.069	
2097.97	6.20178	3.00056	7575.98	2197.28	79.3956	17.6107	589.805	
2099.61	5.6015	1.80019	7201.05	2210.16	77.3849	18.8117	592.486	
2101.25	6.20159	2.60038	7059.87	2269	84.6269	20.4141	603.046	
2102.89	5.60125	2.40034	7183.95	2436.45	91.2647	19.8132	673.899	
2104.52	5.80125	3.20059	7049.1	2547.28	93.6781	18.8118	704.791	
2106.16	5.60118	3.60066	6958.13	2659.35	101.928	19.4122	731.516	
2107.8	6.00127	4.4009	6978.63	2805.72	108.566	20.8142	776.424	
2109.44	5.80132	4.60091	7223.08	3049.18	110.177	19.6125	838.223	
2111.08	5.40115	4.20087	6907.4	3067.08	106.154	19.4123	828.739	
2112.72	4.80099	3.20059	6548.37	3048.23	103.34	18.4111	823.301	
2114.36	4.80104	2.80054	6303.44	3047.13	100.318	19.413	838.645	
2115.99	3.80076	2.80049	6372.22	3254.25	102.132	18.2113	875.213	
2117.63	3.40058	2.20032	5973.17	3225.6	102.534	18.2113	869.319	
2119.27	2.60038	2.60043	5836.09	3295.01	106.959	17.8109	884.77	
2120.91	3.20062	2.80045	5787.85	3398.08	111.586	19.2123	920.759	
2122.55	3.20062	2.4004	5902.88	3644.29	122.875	19.412	970.648	
2124.19	3.20062	1.60021	5479.52	3492.83	121.865	17.8105	958.124	
2125.82	2.80055	1.00015	5178.48	3467.54	115.425	17.0098	951.996	
2127.46	2.60053	0.600031	4978	3494.01	108.786	18.211	955.114	
2129.1	2.40039	0.200006	5002.64	3710.39	112.208	18.211	977.655	
2130.74	1.80021	0.200006	4652.26	3620.01	100.316	16.6093	953.808	
2132.38	1.60023	0.200006	4577.99	3762.18	101.121	18.2108	949.82	
2134.02	2.20041	0.600055	4657.41	3949.54	104.743	18.8113	991.401	
2135.65	2.60046	0.600067	4673.05	4171.6	114.205	17.6104	1017.58	
2137.29	2.20043	0.600067	4330.06	4030.49	106.757	16.6095	985.979	
2138.93	2.00042	0.600067	4145.34	4044.62	108.769	16.2089	970.9	
2140.57	2.00038	0.600067	4085.88	4194.73	112.598	15.4081	998.943	
2142.21	1.60021	0.600067	3963.38	4364.46	117.836	16.0091	1004.26	
2143.85	1.20016	0.600067	3739.9	4341.96	116.827	17.8108	987.415	
2145.48	1.20009	1.00009	3659.63	4484.14	121.656	19.0119	1014.1	
2147.12	1.40009	1.20011	3718.45	4816.33	126.693	20.2139	1059.04	
2148.76	2.00018	1.20011	3564.89	4845.41	122.664	20.8147	1053.07	
2150.4	1.80018	0.800061	3300.42	4679.51	120.648	20.2135	1018.02	
2152.04	2.20023	0.600043	3121.21	4670.65	117.023	19.2123	1017.19	
2153.68	1.80019	0.200018	3119.98	4948.98	120.247	17.4105	1051.87	
2155.32	1.80019	0	2936.82	4935.08	119.038	17.2095	1044.38	
2156.95	1.00009	0	2815.88	5006.17	118.232	16.2082	1044.18	
2158.59	0.800073	0.200006	2789.99	5192.13	122.467	15.4076	1065.8	
2160.23	1.00008	0.400024	2906.9	5668.02	133.154	15.6081	1114.56	
2161.87	1.20009	0.600043	2690.58	5513.56	129.728	16.409	1086.05	
2163.51	1.60013	0.600043	2524.67	5455.6	127.916	15.4081	1049.46	
2165.15	1.60013	0.600043	2402.45	5449.64	131.544	15.208	1040.7	
2166.78	2.00016	0.400037	2421.31	5834.77	127.509	15.408	1074.32	
2168.42	1.4001	0.200018	2180.34	5600.47	120.448	14.6071	1037.68	
2170.06	1.2001	0.200018	2102.51	5687.53	123.671	13.8062	1039.44	
2171.7	1.00007	0.200018	2062.94	5805.78	124.478	14.0062	1065.55	
2173.34	1.00007	0.200018	2052.08	6131.17	123.266	13.8062	1101.7	
2174.98	0.600043	0.200018	1811.94	5778.85	117.429	13.606	1037.15	
2176.61	0.800061	0.200018	1703.09	5765.32	115.212	13.6059	1003.87	
2178.25	1.00007	0	1648.96	5873.52	114.003	15.0074	998.273	
2179.89	0.600043	0	1612.38	6164.15	120.255	15.608	1010.23	
2181.53	0.600043	0	1481.2	5996.09	119.251	17.0097	965.619	
2183.17	0.800061	0.200006	1429.12	6138.98	124.281	17.0098	987.189	
2184.81	0.600043	0.200006	1408.48	6364.64	128.314	16.8097	1030.06	
2186.44	0.200018	0.200006	1347.73	6463.65	127.509	15.4081	1026.22	
2188.08	0.400024	0.200006	1231.94	6216.55	116.826	13.0064	988.777	
2189.72	0.600067	0.600031	1155.59	6220.59	114.004	12.4055	980.945	
2191.36	0.400049	0.400024	1148.3	6452.14	119.047	13.2061	993.068	
2193	0.600067	0.400024	1090.33	6461.69	113.805	14.8081	964.352	
2194.64	0.600067	0.400024	1019.39	6397.82	114.21	16.41	931.355	
2196.28	0.400061	0.400024	980.784	6513.55	122.469	18.0109	931.99	
2197.91	0.600043	0	992.636	6897.1	129.319	17.21	970.243	
2199.55	0.600043	0	917.499	6739.64	124.077	16.8099	936.549	
2201.19	0.600043	0	860.946	6647.36	119.453	15.6084	910.569	
2202.83	0.600043	0	818.123	6658.23	117.236	14.8077	910.548	
2204.47	0.600043	0	823.631	7021.51	117.438	15.008	934.336	
2206.11	0.200018	0	741.856	6767.75	110.789	15.6087	889.302	
2207.74	0.200018	0	702.657	6835.8	107.767	14.8077	886.99	
2209.38	0	0	673.077	7002.43	115.009	13.807	893.294	
2211.02	0	0	665.777	7375.39	123.678	14.007	939.741	
2212.66	0	0	588.555	7015.52	119.648	15.4086	900.79	
2214.3	0	0	561.861	7046.72	124.683	15.0081	884.166	
2215.94	0	0	546.143	7102.91	127.302	16.009	883.106	
2217.57	0	0	545.321	7419.87	130.529	16.409	902.346	
2219.21	0	0	501.297	7180.22	121.056	15.8083	848.547	
2220.85	0	0	486.485	7323.79	122.062	13.806	845.99	
2222.49	0	0	486.085	7565.31	124.887	13.0056	866.87	
2224.13	0	0	483.416	7767.6	124.082	13.2062	869.81	
2225.77	0	0	443.854	7353.1	119.249	12.8061	825.62	
2227.4	0.200006	0	428.701	7347.59	123.074	12.2057	812.409	
2229.04	0.400012	0	431.767	7451.77	122.269	13.0063	815.187	
2230.68	0.400012	0	411.439	7484.31	120.454	13.4064	804.638	
2232.32	0.400012	0	379.827	7324.52	116.226	13.0055	783.639	
2233.96	0.400012	0	370.013	7471.26	117.632	13.2057	793.682	
2235.6	0.200006	0	373.491	7781.19	118.441	14.4073	815.521	
2237.24	0.200018	0.200006	351.375	7715.12	115.821	13.6067	790.518	
2238.87	0.200018	0.200006	326.697	7446.69	109.576	14.4076	762.193	
2240.51	0.400024	0.200006	311.224	7385.74	110.783	13.0065	742.564	
2242.15	0.600031	0.200006	307.959	7580.74	110.177	15.209	745.482	
2243.79	0.600031	0.200006	287.16	7354.07	105.139	15.4086	707.984	
2245.43	0.400012	0	274.728	7280.01	104.334	15.4084	696.104	
2247.07	0.400012	0	278.59	7351.34	106.749	15.0079	689.03	
2248.7	0.400024	0.200006	286.115	7726.15	114.003	17.0096	728.413	
2250.34	0.400037	0.200006	272.478	7396.13	108.368	14.4067	697.7	
2251.98	0.400037	0.200006	260.506	7261.15	107.765	13.4058	683.767	
2253.62	0.400037	0.200006	254.006	7255.44	102.738	14.2064	680.853	
2255.26	0.400037	0.200006	260.117	7566.13	101.732	13.606	710.142	
2256.9	0.200018	0	244.062	7206.51	94.2771	12.2047	656.403	
2258.53	0	0	237.972	7277.13	94.8815	14.2068	647.902	
2260.17	0	0	242.626	7388.98	94.8827	14.2069	650.807	
2261.81	0	0	247.094	7639.19	105.552	14.0071	677.763	
2263.45	0	0	227.584	7221.03	102.33	13.8071	631.42	
2265.09	0	0	222.116	7145.57	105.752	13.8071	627.682	
2266.73	0	0.200031	225.167	7181.24	104.344	11.405	643.486	
2268.36	0	0.200031	228.414	7383.09	106.556	11.0048	665.99	
2270	0	0.200031	211.794	7123.89	99.1026	10.404	630.732	
2271.64	0	0.200031	208.557	7209.42	96.6896	10.6041	629.074	
2273.28	0	0.200031	217.472	7419.13	94.6776	9.60351	644.658	
2274.92	0	0	214.421	7474.87	98.7017	10.4039	633.205	
2276.56	0	0.200031	203.478	7093.51	94.6787	9.80343	601.387	
2278.2	0	0.200031	203.274	6999.55	95.6872	10.2037	588.547	
2279.83	0	0.200031	206.511	7109.86	104.342	11.2044	621.856	
2281.47	0.200006	0.200031	202.664	7067.05	102.734	12.8056	607.938	
2283.11	0.200006	0.200031	197.199	6918.1	99.9166	12.4056	594.258	
2284.75	0.400024	0.200018	199.019	7007.89	100.922	12.0053	592.388	
2286.39	0.600031	0.200018	208.738	7337.25	105.552	10.6045	630.634	
2288.03	0.600031	0.200018	206.916	7169.3	99.9134	11.0051	590.71	
2289.66	0.400024	0.200018	200.243	6950.4	99.3065	10.2046	576.642	
2291.3	0.600031	0.200018	197.204	6893.45	99.7098	10.0042	573.741	
2292.94	0.400012	0	203.286	7150.34	101.923	12.2059	604.303	
2294.58	0.200006	0	193.774	6880.77	97.6978	12.0058	568.945	
2296.22	0.200006	0	190.536	6887.91	101.321	10.0043	574.537	
2297.86	0.200006	0	191.336	6985.46	100.116	9.60376	583.629	
2299.49	0	0.200006	204.303	7320.49	102.529	10.6045	617.278	
2301.13	0	0.200006	198.83	6970.18	97.2986	8.0027	591.063	
2302.77	0	0.200006	200.453	6862.83	94.8805	8.60308	584.65	
2304.41	0	0.200006	202.274	6786.53	89.6479	8.00276	574.293	
2306.05	0	0.200006	209.965	7045.42	94.0741	8.403	591.928	
2307.69	0	0	202.463	6755.28	92.8667	8.00266	566.977	
2309.32	0	0	205.907	6817.56	95.6813	8.803	559.727	
2310.96	0	0	206.707	6934.71	97.6956	9.00313	563.866	
2312.6	0	0	212.786	7189.89	99.1035	10.804	589.36	
2314.24	0	0	205.095	6790.91	95.0784	10.6039	559.965	
2315.88	0	0	198.218	6676.94	94.8784	10.404	539.511	
2317.52	0	0	192.949	6696.79	96.8903	11.6051	542.219	
2319.16	0	0	197.404	6847.17	98.2968	11.6049	546.566	
2320.79	0	0	189.102	6631.65	97.8945	11.2046	517.584	
2322.43	0	0	186.873	6711.35	97.0903	11.2046	520.872	
2324.07	0	0	198.014	6960.28	97.2915	11.0041	550.248	
2325.71	0	0.200006	192.961	7016.38	94.073	9.00272	555.41	
2327.35	0	0.200006	184.462	6731.62	86.4315	10.6043	541.15	
2328.99	0	0.200006	184.864	6646.05	86.8338	11.2049	529.195	
2330.62	0	0.200006	189.726	6826.85	89.2471	11.4051	555.301	
2332.26	0	0.200006	181.618	6732	91.0571	10.8048	537.275	
2333.9	0	0	189.306	6640.49	91.8636	11.405	528.577	
2335.54	0	0	188.298	6719	97.4937	10.2038	528.79	
2337.18	0	0	194.373	7055.35	97.4937	8.60267	569.095	
2338.82	0	0.200006	188.705	6825.22	95.2815	8.00242	542.376	
2340.45	0	0.200006	185.065	6642.55	88.2435	7.8024	532.472	
2342.09	0	0.200006	174.551	6539.33	86.2318	8.60284	521.951	
2343.73	0	0.200006	180.82	6819.04	88.4459	9.20319	547.617	
2345.37	0.200006	0.200006	174.14	6555.44	85.8316	10.0037	526.685	
2347.01	0.200006	0	176.771	6561.32	85.8316	10.6042	520.289	
2348.65	0.200006	0	176.567	6651.49	85.2299	11.2045	527.094	
2350.28	0.200006	0	183.637	7007.65	89.4523	11.8053	561.914	
2351.92	0.200006	0	177.77	6629.87	81.6081	12.0056	531.934	
2353.56	0	0	175.344	6532.34	84.2224	11.2052	524.909	
2355.2	0	0	170.085	6516.59	84.0224	12.2058	525.939	
2356.84	0	0	174.334	6758.15	93.8772	12.4058	554.969	
2358.48	0.200006	0	169.885	6450.32	89.2519	11.4049	525.94	
2360.12	0.200006	0	171.709	6505.31	90.6582	10.8047	527.776	
2361.75	0.200006	0	176.764	6653.49	91.0606	11.8053	535.207	
2363.39	0.200006	0	181.01	6842.53	95.6865	11.4051	568.974	
2365.03	0.200006	0	180.405	6498.74	88.0408	11.6053	532.945	
2366.67	0.200006	0	182.426	6427.85	88.0418	11.005	527.166	
2368.31	0.200006	0	186.468	6489.28	90.6551	10.8047	540.187	
2369.95	0.200006	0	183.029	6548.72	90.0539	11.0047	547.021	
2371.58	0.200006	0	181.814	6367.38	83.82	10.404	513.466	
2373.22	0.200006	0	180.192	6429.34	88.2443	10.8042	506.252	
2374.86	0.200006	0	186.265	6691.25	93.8749	12.0047	519.662	
2376.5	0.200006	0	183.028	6679.57	96.2891	12.0047	514.684	
2378.14	0.200006	0.200006	179.19	6442.92	96.0856	11.6046	495.266	
2379.78	0.200006	0.200006	181.821	6344.22	95.8837	11.0043	488.88	
2381.41	0.200006	0.200006	186.474	6543.42	92.8676	10.2038	519.443	
2383.05	0	0.200006	179.796	6354.79	87.6379	10.4042	507.463	
2384.69	0	0.200006	178.585	6258.76	84.0184	9.00328	494.071	
2386.33	0	0	181.007	6332.05	83.8195	9.40357	489.344	
2387.97	0	0	185.055	6678.86	86.4336	10.6043	527.421	
2389.61	0	0	174.547	6408.86	87.0357	9.80394	497.886	
2391.24	0	0	173.737	6303	85.4283	9.40346	495.826	
2392.88	0	0	171.92	6258.4	84.6232	10.6041	498.3	
2394.52	0	0	179.607	6489.09	86.0292	12.0055	525.759	
2396.16	0	0	175.154	6211.87	87.6372	10.2046	479.273	
2397.8	0	0	177.169	6273.02	85.4269	11.4055	482.153	
2399.44	0	0.200006	174.343	6376.04	83.6197	11.8059	485.45	
2401.08	0	0.400012	180.206	6657.68	88.4468	11.4058	516.662	
2402.71	0	0.400012	172.114	6350.33	82.6164	9.60393	489.415	
2404.35	0	0.400012	164.84	6273.93	78.5962	10.2042	498.441	
2405.99	0	0.600018	168.68	6290.41	77.7924	9.80373	507.102	
2407.63	0	0.400012	170.496	6449.56	85.4304	10.404	525.307	
2409.27	0	0.200006	166.45	6212.68	79.1967	9.4034	492.043	
2410.91	0	0.200006	167.06	6254.02	82.8166	9.20329	493.471	
2412.54	0	0.200006	174.129	6467.55	84.6245	9.40319	513.287	
2414.18	0	0	170.696	6517.33	86.4323	9.20319	518.23	
2415.82	0	0	170.696	6224	78.7941	7.60211	491.383	
2417.46	0	0	166.05	6129.01	79.9996	8.8027	486.036	
2419.1	0	0	168.069	6275.42	78.9922	9.00282	502.126	
2420.74	0	0	164.633	6182.41	81.6068	8.60288	483.338	
2422.37	0	0	160.192	6059.99	82.0109	8.80332	469.123	
2424.01	0	0	156.154	6131.57	85.2277	8.20299	466.451	
2425.65	0	0	162.42	6434.13	83.4195	8.00297	489.106	
2427.29	0	0.200006	160.605	6256.06	80.8072	7.40266	477.969	
2428.93	0	0.400012	159.595	6083.98	72.9703	7.00238	466.879	
2430.57	0	0.400012	161.814	6013.48	68.9498	7.60261	462.365	
2432.2	0	0.400012	170.098	6266.09	72.5676	9.20349	485.048	
2433.84	0	0.400012	167.061	6015.56	74.1768	8.60307	471.439	
2435.48	0	0.200006	158.177	6005.05	71.7672	8.40307	469.167	
2437.12	0.200006	0	156.565	6106.36	75.9844	9.20329	480.669	
2438.76	0.200006	0	163.635	6434.3	84.8314	9.60331	503.555	
2440.4	0.200006	0	154.75	6106.48	78.6	9.20329	478.812	
2442.04	0.200006	0	153.742	6022.26	79.202	9.80371	468.118	
2443.67	0.400012	0	156.968	6000.3	84.0249	10.604	466.877	
2445.31	0.400012	0.200018	167.276	6226.87	86.8398	10.0038	493.941	
2446.95	0.400012	0.200018	159.804	5947.85	78.1937	8.80302	474.735	
2448.59	0.400012	0.200018	160.408	6003.36	81.2074	8.60262	478.644	
2450.23	0.400012	0.200018	156.167	6129.31	80.0015	9.20278	486.039	
2451.87	0.200006	0.200018	164.042	6308.41	84.2236	10.2035	503.991	
2453.5	0	0	152.118	5973.44	79.8012	11.0039	472.415	
2455.14	0	0	156.355	5890.85	84.8264	11.004	463.808	
2456.78	0	0	158.575	5932.23	82.8161	11.4044	473.684	
2458.42	0	0	164.233	6037.4	85.026	11.8047	485.228	
2460.06	0	0	156.356	5873.49	79.998	10.4039	456.803	
2461.7	0	0	156.963	5947.51	79.998	9.8036	454.133	
2463.33	0	0	159.591	6195.11	76.5798	11.2045	475.111	
2464.97	0	0	167.476	6202.77	78.1881	11.0042	476.148	
2466.61	0	0	163.232	5965.59	73.3663	9.0031	459.883	
2468.25	0	0	166.668	5880.31	69.9517	9.20322	460.699	
2469.89	0	0	170.501	6035.49	73.1684	9.40341	483.762	
2471.53	0	0	166.459	5928.79	75.58	7.60233	467.691	
2473.16	0	0	157.36	5853.64	76.5841	7.4022	444.068	
2474.8	0	0	156.35	5922.79	80.4027	8.2025	443.862	
2476.44	0	0	160.389	6239.34	87.0345	8.00247	473.54	
2478.08	0	0	154.537	6017.76	78.1978	9.60393	446.169	
2479.72	0.200006	0	148.281	5866.91	72.7753	9.40379	440.421	
2481.36	0.200006	0	143.642	5780.61	70.9665	9.40391	448.812	
2483	0.200006	0	155.163	6012.41	72.5728	9.60402	482.666	
2484.63	0.200006	0	147.889	5757.48	70.5618	9.00367	455.656	
2486.27	0.200006	0	145.47	5801.91	78.7942	7.60226	462.213	
2487.91	0	0	153.748	5855.6	82.8106	8.60272	463.244	
2489.55	0	0	164.246	6176.93	87.4351	9.20302	484.049	
2491.19	0	0	150.104	5863.11	81.4078	9.00311	450.406	
2492.83	0	0	147.282	5773	78.1927	9.00305	437.495	
2494.46	0	0	150.305	5722.22	74.576	10.0037	424.383	
2496.1	0	0	133.21	5361.51	65.1299	9.00343	391.363	
2497.74	0	0	140.602	5469.01	67.1374	14.006	373.265	
